Time:512Hz,Epoch,Electrode,Attention,Meditation,Delta,Theta,Low Alpha,High Alpha,Low Beta,High Beta,Low Gamma,Mid Gamma
0,0,107,61,54,280789,16458,2627,7221,2333,2637,520,294
0.001953125,0,83,61,54,280789,16458,2627,7221,2333,2637,520,294
0.00390625,0,84,61,54,280789,16458,2627,7221,2333,2637,520,294
0.005859375,0,74,61,54,280789,16458,2627,7221,2333,2637,520,294
0.0078125,0,40,61,54,280789,16458,2627,7221,2333,2637,520,294
0.009765625,0,1,61,54,280789,16458,2627,7221,2333,2637,520,294
0.01171875,0,-10,61,54,280789,16458,2627,7221,2333,2637,520,294
0.013671875,0,19,61,54,280789,16458,2627,7221,2333,2637,520,294
0.015625,0,49,61,54,280789,16458,2627,7221,2333,2637,520,294
0.017578125,0,40,61,54,280789,16458,2627,7221,2333,2637,520,294
0.01953125,0,36,61,54,280789,16458,2627,7221,2333,2637,520,294
0.021484375,0,18,61,54,280789,16458,2627,7221,2333,2637,520,294
0.0234375,0,-18,61,54,280789,16458,2627,7221,2333,2637,520,294
0.025390625,0,-40,61,54,280789,16458,2627,7221,2333,2637,520,294
0.02734375,0,-29,61,54,280789,16458,2627,7221,2333,2637,520,294
0.029296875,0,-18,61,54,280789,16458,2627,7221,2333,2637,520,294
0.03125,0,-22,61,54,280789,16458,2627,7221,2333,2637,520,294
0.033203125,0,-20,61,54,280789,16458,2627,7221,2333,2637,520,294
0.03515625,0,-11,61,54,280789,16458,2627,7221,2333,2637,520,294
0.037109375,0,-5,61,54,280789,16458,2627,7221,2333,2637,520,294
0.0390625,0,0,61,54,280789,16458,2627,7221,2333,2637,520,294
0.041015625,0,16,61,54,280789,16458,2627,7221,2333,2637,520,294
0.04296875,0,24,61,54,280789,16458,2627,7221,2333,2637,520,294
0.044921875,0,9,61,54,280789,16458,2627,7221,2333,2637,520,294
0.046875,0,1,61,54,280789,16458,2627,7221,2333,2637,520,294
0.048828125,0,-5,61,54,280789,16458,2627,7221,2333,2637,520,294
0.05078125,0,12,61,54,280789,16458,2627,7221,2333,2637,520,294
0.052734375,0,34,61,54,280789,16458,2627,7221,2333,2637,520,294
0.0546875,0,19,61,54,280789,16458,2627,7221,2333,2637,520,294
0.056640625,0,-7,61,54,280789,16458,2627,7221,2333,2637,520,294
0.05859375,0,-38,61,54,280789,16458,2627,7221,2333,2637,520,294
0.060546875,0,-40,61,54,280789,16458,2627,7221,2333,2637,520,294
0.0625,1,-23,61,54,280789,16458,2627,7221,2333,2637,520,294
0.064453125,1,-11,61,54,280789,16458,2627,7221,2333,2637,520,294
0.06640625,1,-5,61,54,280789,16458,2627,7221,2333,2637,520,294
0.068359375,1,-4,61,54,280789,16458,2627,7221,2333,2637,520,294
0.0703125,1,-17,61,54,280789,16458,2627,7221,2333,2637,520,294
0.072265625,1,-52,61,54,280789,16458,2627,7221,2333,2637,520,294
0.07421875,1,-70,61,54,280789,16458,2627,7221,2333,2637,520,294
0.076171875,1,-46,61,54,280789,16458,2627,7221,2333,2637,520,294
0.078125,1,-30,61,54,280789,16458,2627,7221,2333,2637,520,294
0.080078125,1,-50,61,54,280789,16458,2627,7221,2333,2637,520,294
0.08203125,1,-72,61,54,280789,16458,2627,7221,2333,2637,520,294
0.083984375,1,-72,61,54,280789,16458,2627,7221,2333,2637,520,294
0.0859375,1,-60,61,54,280789,16458,2627,7221,2333,2637,520,294
0.087890625,1,-60,61,54,280789,16458,2627,7221,2333,2637,520,294
0.08984375,1,-74,61,54,280789,16458,2627,7221,2333,2637,520,294
0.091796875,1,-76,61,54,280789,16458,2627,7221,2333,2637,520,294
0.09375,1,-58,61,54,280789,16458,2627,7221,2333,2637,520,294
0.095703125,1,-38,61,54,280789,16458,2627,7221,2333,2637,520,294
0.09765625,1,-38,61,54,280789,16458,2627,7221,2333,2637,520,294
0.099609375,1,-61,61,54,280789,16458,2627,7221,2333,2637,520,294
0.1015625,1,-74,61,54,280789,16458,2627,7221,2333,2637,520,294
0.103515625,1,-53,61,54,280789,16458,2627,7221,2333,2637,520,294
0.10546875,1,-21,61,54,280789,16458,2627,7221,2333,2637,520,294
0.107421875,1,-4,61,54,280789,16458,2627,7221,2333,2637,520,294
0.109375,1,-12,61,54,280789,16458,2627,7221,2333,2637,520,294
0.111328125,1,-36,43,37,1222787,287260,5344,25322,17791,26834,27735,15498
0.11328125,1,-33,43,37,1222787,287260,5344,25322,17791,26834,27735,15498
0.115234375,1,-8,43,37,1222787,287260,5344,25322,17791,26834,27735,15498
0.1171875,1,11,43,37,1222787,287260,5344,25322,17791,26834,27735,15498
0.119140625,1,20,43,37,1222787,287260,5344,25322,17791,26834,27735,15498
0.12109375,1,6,43,37,1222787,287260,5344,25322,17791,26834,27735,15498
0.123046875,1,-9,43,37,1222787,287260,5344,25322,17791,26834,27735,15498
0.125,2,-20,43,37,1222787,287260,5344,25322,17791,26834,27735,15498
0.126953125,2,-40,43,37,1222787,287260,5344,25322,17791,26834,27735,15498
0.12890625,2,-68,43,37,1222787,287260,5344,25322,17791,26834,27735,15498
0.130859375,2,-76,43,37,1222787,287260,5344,25322,17791,26834,27735,15498
0.1328125,2,-66,43,37,1222787,287260,5344,25322,17791,26834,27735,15498
0.134765625,2,-42,43,37,1222787,287260,5344,25322,17791,26834,27735,15498
0.13671875,2,-21,43,37,1222787,287260,5344,25322,17791,26834,27735,15498
0.138671875,2,-26,43,37,1222787,287260,5344,25322,17791,26834,27735,15498
0.140625,2,-44,43,37,1222787,287260,5344,25322,17791,26834,27735,15498
0.142578125,2,-44,43,37,1222787,287260,5344,25322,17791,26834,27735,15498
0.14453125,2,-45,43,37,1222787,287260,5344,25322,17791,26834,27735,15498
0.146484375,2,-56,43,37,1222787,287260,5344,25322,17791,26834,27735,15498
0.1484375,2,-44,43,37,1222787,287260,5344,25322,17791,26834,27735,15498
0.150390625,2,-29,43,37,1222787,287260,5344,25322,17791,26834,27735,15498
0.15234375,2,-10,43,37,1222787,287260,5344,25322,17791,26834,27735,15498
0.154296875,2,19,43,37,1222787,287260,5344,25322,17791,26834,27735,15498
0.15625,2,39,43,37,1222787,287260,5344,25322,17791,26834,27735,15498
0.158203125,2,48,43,37,1222787,287260,5344,25322,17791,26834,27735,15498
0.16015625,2,42,43,37,1222787,287260,5344,25322,17791,26834,27735,15498
0.162109375,2,25,43,37,1222787,287260,5344,25322,17791,26834,27735,15498
0.1640625,2,-13,43,37,1222787,287260,5344,25322,17791,26834,27735,15498
0.166015625,2,-49,43,37,1222787,287260,5344,25322,17791,26834,27735,15498
0.16796875,2,-52,43,37,1222787,287260,5344,25322,17791,26834,27735,15498
0.169921875,2,-49,43,37,1222787,287260,5344,25322,17791,26834,27735,15498
0.171875,2,-56,43,37,1222787,287260,5344,25322,17791,26834,27735,15498
0.173828125,2,-66,43,37,1222787,287260,5344,25322,17791,26834,27735,15498
0.17578125,2,-84,43,37,1222787,287260,5344,25322,17791,26834,27735,15498
0.177734375,2,-104,43,37,1222787,287260,5344,25322,17791,26834,27735,15498
0.1796875,2,-104,43,37,1222787,287260,5344,25322,17791,26834,27735,15498
0.181640625,2,-87,43,37,1222787,287260,5344,25322,17791,26834,27735,15498
0.18359375,2,-70,43,37,1222787,287260,5344,25322,17791,26834,27735,15498
0.185546875,2,-66,43,37,1222787,287260,5344,25322,17791,26834,27735,15498
0.1875,3,-86,43,37,1222787,287260,5344,25322,17791,26834,27735,15498
0.189453125,3,-103,43,37,1222787,287260,5344,25322,17791,26834,27735,15498
0.19140625,3,-99,43,37,1222787,287260,5344,25322,17791,26834,27735,15498
0.193359375,3,-84,43,37,1222787,287260,5344,25322,17791,26834,27735,15498
0.1953125,3,-88,43,37,1222787,287260,5344,25322,17791,26834,27735,15498
0.197265625,3,-97,43,37,1222787,287260,5344,25322,17791,26834,27735,15498
0.19921875,3,-84,43,37,1222787,287260,5344,25322,17791,26834,27735,15498
0.201171875,3,-68,43,37,1222787,287260,5344,25322,17791,26834,27735,15498
0.203125,3,-76,43,37,1222787,287260,5344,25322,17791,26834,27735,15498
0.205078125,3,-117,43,37,1222787,287260,5344,25322,17791,26834,27735,15498
0.20703125,3,-139,43,37,1222787,287260,5344,25322,17791,26834,27735,15498
0.208984375,3,-137,43,37,1222787,287260,5344,25322,17791,26834,27735,15498
0.2109375,3,-131,43,37,1222787,287260,5344,25322,17791,26834,27735,15498
0.212890625,3,-119,43,37,1222787,287260,5344,25322,17791,26834,27735,15498
0.21484375,3,-102,43,37,1222787,287260,5344,25322,17791,26834,27735,15498
0.216796875,3,-84,43,37,1222787,287260,5344,25322,17791,26834,27735,15498
0.21875,3,-83,43,37,1222787,287260,5344,25322,17791,26834,27735,15498
0.220703125,3,-90,43,37,1222787,287260,5344,25322,17791,26834,27735,15498
0.22265625,3,-102,43,37,1222787,287260,5344,25322,17791,26834,27735,15498
0.224609375,3,-109,43,37,1222787,287260,5344,25322,17791,26834,27735,15498
0.2265625,3,-115,43,37,1222787,287260,5344,25322,17791,26834,27735,15498
0.228515625,3,-132,43,37,1222787,287260,5344,25322,17791,26834,27735,15498
0.23046875,3,-156,43,37,1222787,287260,5344,25322,17791,26834,27735,15498
0.232421875,3,-169,43,37,1222787,287260,5344,25322,17791,26834,27735,15498
0.234375,3,-147,43,37,1222787,287260,5344,25322,17791,26834,27735,15498
0.236328125,3,-126,43,37,1222787,287260,5344,25322,17791,26834,27735,15498
0.23828125,3,-124,43,37,1222787,287260,5344,25322,17791,26834,27735,15498
0.240234375,3,-139,43,37,1222787,287260,5344,25322,17791,26834,27735,15498
0.2421875,3,-140,43,37,1222787,287260,5344,25322,17791,26834,27735,15498
0.244140625,3,-116,43,37,1222787,287260,5344,25322,17791,26834,27735,15498
0.24609375,3,-90,43,37,1222787,287260,5344,25322,17791,26834,27735,15498
0.248046875,3,-89,43,37,1222787,287260,5344,25322,17791,26834,27735,15498
0.25,4,-93,43,37,1222787,287260,5344,25322,17791,26834,27735,15498
0.251953125,4,-85,43,37,1222787,287260,5344,25322,17791,26834,27735,15498
0.25390625,4,-61,43,37,1222787,287260,5344,25322,17791,26834,27735,15498
0.255859375,4,-50,43,37,1222787,287260,5344,25322,17791,26834,27735,15498
0.2578125,4,-37,43,37,1222787,287260,5344,25322,17791,26834,27735,15498
0.259765625,4,-19,43,37,1222787,287260,5344,25322,17791,26834,27735,15498
0.26171875,4,0,43,37,1222787,287260,5344,25322,17791,26834,27735,15498
0.263671875,4,-2,43,37,1222787,287260,5344,25322,17791,26834,27735,15498
0.265625,4,-28,43,37,1222787,287260,5344,25322,17791,26834,27735,15498
0.267578125,4,-58,43,37,1222787,287260,5344,25322,17791,26834,27735,15498
0.26953125,4,-72,43,37,1222787,287260,5344,25322,17791,26834,27735,15498
0.271484375,4,-85,43,37,1222787,287260,5344,25322,17791,26834,27735,15498
0.2734375,4,-83,43,37,1222787,287260,5344,25322,17791,26834,27735,15498
0.275390625,4,-69,43,37,1222787,287260,5344,25322,17791,26834,27735,15498
0.27734375,4,-60,43,37,1222787,287260,5344,25322,17791,26834,27735,15498
0.279296875,4,-45,43,37,1222787,287260,5344,25322,17791,26834,27735,15498
0.28125,4,-26,43,37,1222787,287260,5344,25322,17791,26834,27735,15498
0.283203125,4,-49,43,37,1222787,287260,5344,25322,17791,26834,27735,15498
0.28515625,4,-83,43,37,1222787,287260,5344,25322,17791,26834,27735,15498
0.287109375,4,-101,43,37,1222787,287260,5344,25322,17791,26834,27735,15498
0.2890625,4,-82,43,37,1222787,287260,5344,25322,17791,26834,27735,15498
0.291015625,4,-20,43,37,1222787,287260,5344,25322,17791,26834,27735,15498
0.29296875,4,21,43,37,1222787,287260,5344,25322,17791,26834,27735,15498
0.294921875,4,33,43,37,1222787,287260,5344,25322,17791,26834,27735,15498
0.296875,4,36,43,37,1222787,287260,5344,25322,17791,26834,27735,15498
0.298828125,4,42,43,37,1222787,287260,5344,25322,17791,26834,27735,15498
0.30078125,4,32,43,37,1222787,287260,5344,25322,17791,26834,27735,15498
0.302734375,4,-14,43,37,1222787,287260,5344,25322,17791,26834,27735,15498
0.3046875,4,-53,43,37,1222787,287260,5344,25322,17791,26834,27735,15498
0.306640625,4,-51,43,37,1222787,287260,5344,25322,17791,26834,27735,15498
0.30859375,4,-36,43,37,1222787,287260,5344,25322,17791,26834,27735,15498
0.310546875,4,-29,43,37,1222787,287260,5344,25322,17791,26834,27735,15498
0.3125,5,-29,43,37,1222787,287260,5344,25322,17791,26834,27735,15498
0.314453125,5,-25,43,37,1222787,287260,5344,25322,17791,26834,27735,15498
0.31640625,5,-2,43,37,1222787,287260,5344,25322,17791,26834,27735,15498
0.318359375,5,21,43,37,1222787,287260,5344,25322,17791,26834,27735,15498
0.3203125,5,34,43,37,1222787,287260,5344,25322,17791,26834,27735,15498
0.322265625,5,26,43,37,1222787,287260,5344,25322,17791,26834,27735,15498
0.32421875,5,13,43,37,1222787,287260,5344,25322,17791,26834,27735,15498
0.326171875,5,3,43,37,1222787,287260,5344,25322,17791,26834,27735,15498
0.328125,5,-2,43,37,1222787,287260,5344,25322,17791,26834,27735,15498
0.330078125,5,16,43,37,1222787,287260,5344,25322,17791,26834,27735,15498
0.33203125,5,43,43,37,1222787,287260,5344,25322,17791,26834,27735,15498
0.333984375,5,52,43,37,1222787,287260,5344,25322,17791,26834,27735,15498
0.3359375,5,19,43,37,1222787,287260,5344,25322,17791,26834,27735,15498
0.337890625,5,-12,43,37,1222787,287260,5344,25322,17791,26834,27735,15498
0.33984375,5,-17,43,37,1222787,287260,5344,25322,17791,26834,27735,15498
0.341796875,5,-5,43,37,1222787,287260,5344,25322,17791,26834,27735,15498
0.34375,5,-5,43,37,1222787,287260,5344,25322,17791,26834,27735,15498
0.345703125,5,-13,43,37,1222787,287260,5344,25322,17791,26834,27735,15498
0.34765625,5,8,43,37,1222787,287260,5344,25322,17791,26834,27735,15498
0.349609375,5,43,43,37,1222787,287260,5344,25322,17791,26834,27735,15498
0.3515625,5,53,43,37,1222787,287260,5344,25322,17791,26834,27735,15498
0.353515625,5,39,43,37,1222787,287260,5344,25322,17791,26834,27735,15498
0.35546875,5,16,43,37,1222787,287260,5344,25322,17791,26834,27735,15498
0.357421875,5,10,43,37,1222787,287260,5344,25322,17791,26834,27735,15498
0.359375,5,40,43,37,1222787,287260,5344,25322,17791,26834,27735,15498
0.361328125,5,84,43,37,1222787,287260,5344,25322,17791,26834,27735,15498
0.36328125,5,98,43,37,1222787,287260,5344,25322,17791,26834,27735,15498
0.365234375,5,88,43,37,1222787,287260,5344,25322,17791,26834,27735,15498
0.3671875,5,76,43,37,1222787,287260,5344,25322,17791,26834,27735,15498
0.369140625,5,73,43,37,1222787,287260,5344,25322,17791,26834,27735,15498
0.37109375,5,73,43,37,1222787,287260,5344,25322,17791,26834,27735,15498
0.373046875,5,84,43,37,1222787,287260,5344,25322,17791,26834,27735,15498
0.375,6,86,43,37,1222787,287260,5344,25322,17791,26834,27735,15498
0.376953125,6,66,43,37,1222787,287260,5344,25322,17791,26834,27735,15498
0.37890625,6,54,43,37,1222787,287260,5344,25322,17791,26834,27735,15498
0.380859375,6,59,43,37,1222787,287260,5344,25322,17791,26834,27735,15498
0.3828125,6,56,43,37,1222787,287260,5344,25322,17791,26834,27735,15498
0.384765625,6,36,43,37,1222787,287260,5344,25322,17791,26834,27735,15498
0.38671875,6,36,43,37,1222787,287260,5344,25322,17791,26834,27735,15498
0.388671875,6,60,43,37,1222787,287260,5344,25322,17791,26834,27735,15498
0.390625,6,85,43,37,1222787,287260,5344,25322,17791,26834,27735,15498
0.392578125,6,92,43,37,1222787,287260,5344,25322,17791,26834,27735,15498
0.39453125,6,85,43,37,1222787,287260,5344,25322,17791,26834,27735,15498
0.396484375,6,55,43,37,1222787,287260,5344,25322,17791,26834,27735,15498
0.3984375,6,35,43,37,1222787,287260,5344,25322,17791,26834,27735,15498
0.400390625,6,48,43,37,1222787,287260,5344,25322,17791,26834,27735,15498
0.40234375,6,67,43,37,1222787,287260,5344,25322,17791,26834,27735,15498
0.404296875,6,72,43,37,1222787,287260,5344,25322,17791,26834,27735,15498
0.40625,6,66,43,37,1222787,287260,5344,25322,17791,26834,27735,15498
0.408203125,6,66,43,37,1222787,287260,5344,25322,17791,26834,27735,15498
0.41015625,6,100,43,37,1222787,287260,5344,25322,17791,26834,27735,15498
0.412109375,6,137,43,37,1222787,287260,5344,25322,17791,26834,27735,15498
0.4140625,6,124,43,37,1222787,287260,5344,25322,17791,26834,27735,15498
0.416015625,6,83,43,37,1222787,287260,5344,25322,17791,26834,27735,15498
0.41796875,6,51,43,37,1222787,287260,5344,25322,17791,26834,27735,15498
0.419921875,6,52,43,37,1222787,287260,5344,25322,17791,26834,27735,15498
0.421875,6,67,43,37,1222787,287260,5344,25322,17791,26834,27735,15498
0.423828125,6,65,43,37,1222787,287260,5344,25322,17791,26834,27735,15498
0.42578125,6,66,43,37,1222787,287260,5344,25322,17791,26834,27735,15498
0.427734375,6,99,43,37,1222787,287260,5344,25322,17791,26834,27735,15498
0.4296875,6,134,43,37,1222787,287260,5344,25322,17791,26834,27735,15498
0.431640625,6,124,43,37,1222787,287260,5344,25322,17791,26834,27735,15498
0.43359375,6,125,43,37,1222787,287260,5344,25322,17791,26834,27735,15498
0.435546875,6,146,43,37,1222787,287260,5344,25322,17791,26834,27735,15498
0.4375,7,163,43,37,1222787,287260,5344,25322,17791,26834,27735,15498
0.439453125,7,166,43,37,1222787,287260,5344,25322,17791,26834,27735,15498
0.44140625,7,150,43,37,1222787,287260,5344,25322,17791,26834,27735,15498
0.443359375,7,115,43,37,1222787,287260,5344,25322,17791,26834,27735,15498
0.4453125,7,88,43,37,1222787,287260,5344,25322,17791,26834,27735,15498
0.447265625,7,74,43,37,1222787,287260,5344,25322,17791,26834,27735,15498
0.44921875,7,72,43,37,1222787,287260,5344,25322,17791,26834,27735,15498
0.451171875,7,80,43,37,1222787,287260,5344,25322,17791,26834,27735,15498
0.453125,7,97,43,37,1222787,287260,5344,25322,17791,26834,27735,15498
0.455078125,7,109,43,37,1222787,287260,5344,25322,17791,26834,27735,15498
0.45703125,7,112,43,37,1222787,287260,5344,25322,17791,26834,27735,15498
0.458984375,7,90,43,37,1222787,287260,5344,25322,17791,26834,27735,15498
0.4609375,7,82,43,37,1222787,287260,5344,25322,17791,26834,27735,15498
0.462890625,7,104,43,37,1222787,287260,5344,25322,17791,26834,27735,15498
0.46484375,7,120,43,37,1222787,287260,5344,25322,17791,26834,27735,15498
0.466796875,7,101,43,37,1222787,287260,5344,25322,17791,26834,27735,15498
0.46875,7,68,43,37,1222787,287260,5344,25322,17791,26834,27735,15498
0.470703125,7,70,43,37,1222787,287260,5344,25322,17791,26834,27735,15498
0.47265625,7,91,43,37,1222787,287260,5344,25322,17791,26834,27735,15498
0.474609375,7,89,43,37,1222787,287260,5344,25322,17791,26834,27735,15498
0.4765625,7,76,43,37,1222787,287260,5344,25322,17791,26834,27735,15498
0.478515625,7,72,43,37,1222787,287260,5344,25322,17791,26834,27735,15498
0.48046875,7,84,43,37,1222787,287260,5344,25322,17791,26834,27735,15498
0.482421875,7,108,43,37,1222787,287260,5344,25322,17791,26834,27735,15498
0.484375,7,132,43,37,1222787,287260,5344,25322,17791,26834,27735,15498
0.486328125,7,125,43,37,1222787,287260,5344,25322,17791,26834,27735,15498
0.48828125,7,76,43,37,1222787,287260,5344,25322,17791,26834,27735,15498
0.490234375,7,16,43,37,1222787,287260,5344,25322,17791,26834,27735,15498
0.4921875,7,-12,43,37,1222787,287260,5344,25322,17791,26834,27735,15498
0.494140625,7,20,43,37,1222787,287260,5344,25322,17791,26834,27735,15498
0.49609375,7,76,43,37,1222787,287260,5344,25322,17791,26834,27735,15498
0.498046875,7,102,43,37,1222787,287260,5344,25322,17791,26834,27735,15498
0.5,8,73,43,37,1222787,287260,5344,25322,17791,26834,27735,15498
0.501953125,8,21,43,37,1222787,287260,5344,25322,17791,26834,27735,15498
0.50390625,8,-4,43,37,1222787,287260,5344,25322,17791,26834,27735,15498
0.505859375,8,19,43,37,1222787,287260,5344,25322,17791,26834,27735,15498
0.5078125,8,69,43,37,1222787,287260,5344,25322,17791,26834,27735,15498
0.509765625,8,86,43,37,1222787,287260,5344,25322,17791,26834,27735,15498
0.51171875,8,51,43,37,1222787,287260,5344,25322,17791,26834,27735,15498
0.513671875,8,21,43,37,1222787,287260,5344,25322,17791,26834,27735,15498
0.515625,8,34,43,37,1222787,287260,5344,25322,17791,26834,27735,15498
0.517578125,8,68,43,37,1222787,287260,5344,25322,17791,26834,27735,15498
0.51953125,8,96,43,37,1222787,287260,5344,25322,17791,26834,27735,15498
0.521484375,8,102,43,37,1222787,287260,5344,25322,17791,26834,27735,15498
0.5234375,8,86,43,37,1222787,287260,5344,25322,17791,26834,27735,15498
0.525390625,8,75,43,37,1222787,287260,5344,25322,17791,26834,27735,15498
0.52734375,8,96,43,37,1222787,287260,5344,25322,17791,26834,27735,15498
0.529296875,8,106,43,37,1222787,287260,5344,25322,17791,26834,27735,15498
0.53125,8,102,43,37,1222787,287260,5344,25322,17791,26834,27735,15498
0.533203125,8,93,43,37,1222787,287260,5344,25322,17791,26834,27735,15498
0.53515625,8,75,43,37,1222787,287260,5344,25322,17791,26834,27735,15498
0.537109375,8,43,43,37,1222787,287260,5344,25322,17791,26834,27735,15498
0.5390625,8,10,43,37,1222787,287260,5344,25322,17791,26834,27735,15498
0.541015625,8,1,43,37,1222787,287260,5344,25322,17791,26834,27735,15498
0.54296875,8,14,43,37,1222787,287260,5344,25322,17791,26834,27735,15498
0.544921875,8,6,43,37,1222787,287260,5344,25322,17791,26834,27735,15498
0.546875,8,1,43,37,1222787,287260,5344,25322,17791,26834,27735,15498
0.548828125,8,36,43,37,1222787,287260,5344,25322,17791,26834,27735,15498
0.55078125,8,80,43,37,1222787,287260,5344,25322,17791,26834,27735,15498
0.552734375,8,89,43,37,1222787,287260,5344,25322,17791,26834,27735,15498
0.5546875,8,90,43,37,1222787,287260,5344,25322,17791,26834,27735,15498
0.556640625,8,104,43,37,1222787,287260,5344,25322,17791,26834,27735,15498
0.55859375,8,120,43,37,1222787,287260,5344,25322,17791,26834,27735,15498
0.560546875,8,134,43,37,1222787,287260,5344,25322,17791,26834,27735,15498
0.5625,9,154,43,37,1222787,287260,5344,25322,17791,26834,27735,15498
0.564453125,9,152,43,37,1222787,287260,5344,25322,17791,26834,27735,15498
0.56640625,9,137,43,37,1222787,287260,5344,25322,17791,26834,27735,15498
0.568359375,9,145,43,37,1222787,287260,5344,25322,17791,26834,27735,15498
0.5703125,9,152,43,37,1222787,287260,5344,25322,17791,26834,27735,15498
0.572265625,9,164,43,37,1222787,287260,5344,25322,17791,26834,27735,15498
0.57421875,9,183,43,37,1222787,287260,5344,25322,17791,26834,27735,15498
0.576171875,9,213,43,37,1222787,287260,5344,25322,17791,26834,27735,15498
0.578125,9,228,43,37,1222787,287260,5344,25322,17791,26834,27735,15498
0.580078125,9,211,43,37,1222787,287260,5344,25322,17791,26834,27735,15498
0.58203125,9,184,43,37,1222787,287260,5344,25322,17791,26834,27735,15498
0.583984375,9,166,43,37,1222787,287260,5344,25322,17791,26834,27735,15498
0.5859375,9,146,43,37,1222787,287260,5344,25322,17791,26834,27735,15498
0.587890625,9,133,43,37,1222787,287260,5344,25322,17791,26834,27735,15498
0.58984375,9,124,43,37,1222787,287260,5344,25322,17791,26834,27735,15498
0.591796875,9,118,43,37,1222787,287260,5344,25322,17791,26834,27735,15498
0.59375,9,108,43,37,1222787,287260,5344,25322,17791,26834,27735,15498
0.595703125,9,104,43,37,1222787,287260,5344,25322,17791,26834,27735,15498
0.59765625,9,105,43,37,1222787,287260,5344,25322,17791,26834,27735,15498
0.599609375,9,106,43,37,1222787,287260,5344,25322,17791,26834,27735,15498
0.6015625,9,113,43,37,1222787,287260,5344,25322,17791,26834,27735,15498
0.603515625,9,114,43,37,1222787,287260,5344,25322,17791,26834,27735,15498
0.60546875,9,97,43,37,1222787,287260,5344,25322,17791,26834,27735,15498
0.607421875,9,64,43,37,1222787,287260,5344,25322,17791,26834,27735,15498
0.609375,9,28,43,37,1222787,287260,5344,25322,17791,26834,27735,15498
0.611328125,9,26,43,37,1222787,287260,5344,25322,17791,26834,27735,15498
0.61328125,9,58,43,37,1222787,287260,5344,25322,17791,26834,27735,15498
0.615234375,9,82,43,37,1222787,287260,5344,25322,17791,26834,27735,15498
0.6171875,9,84,43,37,1222787,287260,5344,25322,17791,26834,27735,15498
0.619140625,9,72,43,37,1222787,287260,5344,25322,17791,26834,27735,15498
0.62109375,9,66,43,37,1222787,287260,5344,25322,17791,26834,27735,15498
0.623046875,9,82,43,37,1222787,287260,5344,25322,17791,26834,27735,15498
0.625,10,100,43,37,1222787,287260,5344,25322,17791,26834,27735,15498
0.626953125,10,100,43,37,1222787,287260,5344,25322,17791,26834,27735,15498
0.62890625,10,82,43,37,1222787,287260,5344,25322,17791,26834,27735,15498
0.630859375,10,67,43,37,1222787,287260,5344,25322,17791,26834,27735,15498
0.6328125,10,42,43,37,1222787,287260,5344,25322,17791,26834,27735,15498
0.634765625,10,50,43,37,1222787,287260,5344,25322,17791,26834,27735,15498
0.63671875,10,70,43,37,1222787,287260,5344,25322,17791,26834,27735,15498
0.638671875,10,81,43,37,1222787,287260,5344,25322,17791,26834,27735,15498
0.640625,10,71,43,37,1222787,287260,5344,25322,17791,26834,27735,15498
0.642578125,10,73,43,37,1222787,287260,5344,25322,17791,26834,27735,15498
0.64453125,10,74,43,37,1222787,287260,5344,25322,17791,26834,27735,15498
0.646484375,10,69,43,37,1222787,287260,5344,25322,17791,26834,27735,15498
0.6484375,10,60,43,37,1222787,287260,5344,25322,17791,26834,27735,15498
0.650390625,10,64,43,37,1222787,287260,5344,25322,17791,26834,27735,15498
0.65234375,10,84,43,37,1222787,287260,5344,25322,17791,26834,27735,15498
0.654296875,10,102,43,37,1222787,287260,5344,25322,17791,26834,27735,15498
0.65625,10,96,43,37,1222787,287260,5344,25322,17791,26834,27735,15498
0.658203125,10,73,43,37,1222787,287260,5344,25322,17791,26834,27735,15498
0.66015625,10,56,43,37,1222787,287260,5344,25322,17791,26834,27735,15498
0.662109375,10,50,43,37,1222787,287260,5344,25322,17791,26834,27735,15498
0.6640625,10,54,43,37,1222787,287260,5344,25322,17791,26834,27735,15498
0.666015625,10,73,43,37,1222787,287260,5344,25322,17791,26834,27735,15498
0.66796875,10,90,43,37,1222787,287260,5344,25322,17791,26834,27735,15498
0.669921875,10,96,43,37,1222787,287260,5344,25322,17791,26834,27735,15498
0.671875,10,104,43,37,1222787,287260,5344,25322,17791,26834,27735,15498
0.673828125,10,107,43,37,1222787,287260,5344,25322,17791,26834,27735,15498
0.67578125,10,98,43,37,1222787,287260,5344,25322,17791,26834,27735,15498
0.677734375,10,74,43,37,1222787,287260,5344,25322,17791,26834,27735,15498
0.6796875,10,48,43,37,1222787,287260,5344,25322,17791,26834,27735,15498
0.681640625,10,35,43,37,1222787,287260,5344,25322,17791,26834,27735,15498
0.68359375,10,39,43,37,1222787,287260,5344,25322,17791,26834,27735,15498
0.685546875,10,55,43,37,1222787,287260,5344,25322,17791,26834,27735,15498
0.6875,11,71,43,37,1222787,287260,5344,25322,17791,26834,27735,15498
0.689453125,11,72,43,37,1222787,287260,5344,25322,17791,26834,27735,15498
0.69140625,11,74,43,37,1222787,287260,5344,25322,17791,26834,27735,15498
0.693359375,11,76,43,37,1222787,287260,5344,25322,17791,26834,27735,15498
0.6953125,11,58,43,37,1222787,287260,5344,25322,17791,26834,27735,15498
0.697265625,11,10,43,37,1222787,287260,5344,25322,17791,26834,27735,15498
0.69921875,11,-49,43,37,1222787,287260,5344,25322,17791,26834,27735,15498
0.701171875,11,-92,43,37,1222787,287260,5344,25322,17791,26834,27735,15498
0.703125,11,-91,43,37,1222787,287260,5344,25322,17791,26834,27735,15498
0.705078125,11,-35,43,37,1222787,287260,5344,25322,17791,26834,27735,15498
0.70703125,11,38,43,37,1222787,287260,5344,25322,17791,26834,27735,15498
0.708984375,11,84,43,37,1222787,287260,5344,25322,17791,26834,27735,15498
0.7109375,11,86,43,37,1222787,287260,5344,25322,17791,26834,27735,15498
0.712890625,11,68,43,37,1222787,287260,5344,25322,17791,26834,27735,15498
0.71484375,11,65,43,37,1222787,287260,5344,25322,17791,26834,27735,15498
0.716796875,11,89,43,37,1222787,287260,5344,25322,17791,26834,27735,15498
0.71875,11,124,43,37,1222787,287260,5344,25322,17791,26834,27735,15498
0.720703125,11,123,43,37,1222787,287260,5344,25322,17791,26834,27735,15498
0.72265625,11,72,43,37,1222787,287260,5344,25322,17791,26834,27735,15498
0.724609375,11,27,43,37,1222787,287260,5344,25322,17791,26834,27735,15498
0.7265625,11,20,43,37,1222787,287260,5344,25322,17791,26834,27735,15498
0.728515625,11,19,43,37,1222787,287260,5344,25322,17791,26834,27735,15498
0.73046875,11,22,43,37,1222787,287260,5344,25322,17791,26834,27735,15498
0.732421875,11,36,43,37,1222787,287260,5344,25322,17791,26834,27735,15498
0.734375,11,52,43,37,1222787,287260,5344,25322,17791,26834,27735,15498
0.736328125,11,49,43,37,1222787,287260,5344,25322,17791,26834,27735,15498
0.73828125,11,21,43,37,1222787,287260,5344,25322,17791,26834,27735,15498
0.740234375,11,10,43,37,1222787,287260,5344,25322,17791,26834,27735,15498
0.7421875,11,13,43,37,1222787,287260,5344,25322,17791,26834,27735,15498
0.744140625,11,21,43,37,1222787,287260,5344,25322,17791,26834,27735,15498
0.74609375,11,56,43,37,1222787,287260,5344,25322,17791,26834,27735,15498
0.748046875,11,106,43,37,1222787,287260,5344,25322,17791,26834,27735,15498
0.75,12,128,43,37,1222787,287260,5344,25322,17791,26834,27735,15498
0.751953125,12,128,43,37,1222787,287260,5344,25322,17791,26834,27735,15498
0.75390625,12,118,43,37,1222787,287260,5344,25322,17791,26834,27735,15498
0.755859375,12,86,43,37,1222787,287260,5344,25322,17791,26834,27735,15498
0.7578125,12,65,43,37,1222787,287260,5344,25322,17791,26834,27735,15498
0.759765625,12,71,43,37,1222787,287260,5344,25322,17791,26834,27735,15498
0.76171875,12,90,43,37,1222787,287260,5344,25322,17791,26834,27735,15498
0.763671875,12,106,43,37,1222787,287260,5344,25322,17791,26834,27735,15498
0.765625,12,100,43,37,1222787,287260,5344,25322,17791,26834,27735,15498
0.767578125,12,85,43,37,1222787,287260,5344,25322,17791,26834,27735,15498
0.76953125,12,81,43,37,1222787,287260,5344,25322,17791,26834,27735,15498
0.771484375,12,81,43,37,1222787,287260,5344,25322,17791,26834,27735,15498
0.7734375,12,71,43,37,1222787,287260,5344,25322,17791,26834,27735,15498
0.775390625,12,57,43,37,1222787,287260,5344,25322,17791,26834,27735,15498
0.77734375,12,54,43,37,1222787,287260,5344,25322,17791,26834,27735,15498
0.779296875,12,48,43,37,1222787,287260,5344,25322,17791,26834,27735,15498
0.78125,12,42,43,37,1222787,287260,5344,25322,17791,26834,27735,15498
0.783203125,12,48,43,37,1222787,287260,5344,25322,17791,26834,27735,15498
0.78515625,12,52,43,37,1222787,287260,5344,25322,17791,26834,27735,15498
0.787109375,12,54,43,37,1222787,287260,5344,25322,17791,26834,27735,15498
0.7890625,12,45,43,37,1222787,287260,5344,25322,17791,26834,27735,15498
0.791015625,12,48,43,37,1222787,287260,5344,25322,17791,26834,27735,15498
0.79296875,12,56,43,37,1222787,287260,5344,25322,17791,26834,27735,15498
0.794921875,12,60,43,37,1222787,287260,5344,25322,17791,26834,27735,15498
0.796875,12,59,43,37,1222787,287260,5344,25322,17791,26834,27735,15498
0.798828125,12,56,43,37,1222787,287260,5344,25322,17791,26834,27735,15498
0.80078125,12,51,43,37,1222787,287260,5344,25322,17791,26834,27735,15498
0.802734375,12,49,43,37,1222787,287260,5344,25322,17791,26834,27735,15498
0.8046875,12,57,43,37,1222787,287260,5344,25322,17791,26834,27735,15498
0.806640625,12,70,43,37,1222787,287260,5344,25322,17791,26834,27735,15498
0.80859375,12,59,43,37,1222787,287260,5344,25322,17791,26834,27735,15498
0.810546875,12,34,43,37,1222787,287260,5344,25322,17791,26834,27735,15498
0.8125,13,6,43,37,1222787,287260,5344,25322,17791,26834,27735,15498
0.814453125,13,-4,43,37,1222787,287260,5344,25322,17791,26834,27735,15498
0.81640625,13,2,43,37,1222787,287260,5344,25322,17791,26834,27735,15498
0.818359375,13,8,43,37,1222787,287260,5344,25322,17791,26834,27735,15498
0.8203125,13,10,43,37,1222787,287260,5344,25322,17791,26834,27735,15498
0.822265625,13,26,43,37,1222787,287260,5344,25322,17791,26834,27735,15498
0.82421875,13,23,43,37,1222787,287260,5344,25322,17791,26834,27735,15498
0.826171875,13,11,43,37,1222787,287260,5344,25322,17791,26834,27735,15498
0.828125,13,9,43,37,1222787,287260,5344,25322,17791,26834,27735,15498
0.830078125,13,18,43,37,1222787,287260,5344,25322,17791,26834,27735,15498
0.83203125,13,20,43,37,1222787,287260,5344,25322,17791,26834,27735,15498
0.833984375,13,6,43,37,1222787,287260,5344,25322,17791,26834,27735,15498
0.8359375,13,7,43,37,1222787,287260,5344,25322,17791,26834,27735,15498
0.837890625,13,37,43,37,1222787,287260,5344,25322,17791,26834,27735,15498
0.83984375,13,67,43,37,1222787,287260,5344,25322,17791,26834,27735,15498
0.841796875,13,67,43,37,1222787,287260,5344,25322,17791,26834,27735,15498
0.84375,13,42,43,37,1222787,287260,5344,25322,17791,26834,27735,15498
0.845703125,13,43,43,37,1222787,287260,5344,25322,17791,26834,27735,15498
0.84765625,13,73,43,37,1222787,287260,5344,25322,17791,26834,27735,15498
0.849609375,13,107,43,37,1222787,287260,5344,25322,17791,26834,27735,15498
0.8515625,13,120,43,37,1222787,287260,5344,25322,17791,26834,27735,15498
0.853515625,13,99,43,37,1222787,287260,5344,25322,17791,26834,27735,15498
0.85546875,13,71,43,37,1222787,287260,5344,25322,17791,26834,27735,15498
0.857421875,13,64,43,37,1222787,287260,5344,25322,17791,26834,27735,15498
0.859375,13,69,43,37,1222787,287260,5344,25322,17791,26834,27735,15498
0.861328125,13,71,43,37,1222787,287260,5344,25322,17791,26834,27735,15498
0.86328125,13,60,43,37,1222787,287260,5344,25322,17791,26834,27735,15498
0.865234375,13,50,43,37,1222787,287260,5344,25322,17791,26834,27735,15498
0.8671875,13,40,43,37,1222787,287260,5344,25322,17791,26834,27735,15498
0.869140625,13,37,43,37,1222787,287260,5344,25322,17791,26834,27735,15498
0.87109375,13,43,43,37,1222787,287260,5344,25322,17791,26834,27735,15498
0.873046875,13,64,43,37,1222787,287260,5344,25322,17791,26834,27735,15498
0.875,14,87,43,37,1222787,287260,5344,25322,17791,26834,27735,15498
0.876953125,14,96,43,37,1222787,287260,5344,25322,17791,26834,27735,15498
0.87890625,14,75,43,37,1222787,287260,5344,25322,17791,26834,27735,15498
0.880859375,14,53,43,37,1222787,287260,5344,25322,17791,26834,27735,15498
0.8828125,14,56,43,37,1222787,287260,5344,25322,17791,26834,27735,15498
0.884765625,14,70,43,37,1222787,287260,5344,25322,17791,26834,27735,15498
0.88671875,14,67,43,37,1222787,287260,5344,25322,17791,26834,27735,15498
0.888671875,14,74,43,37,1222787,287260,5344,25322,17791,26834,27735,15498
0.890625,14,118,43,37,1222787,287260,5344,25322,17791,26834,27735,15498
0.892578125,14,161,43,37,1222787,287260,5344,25322,17791,26834,27735,15498
0.89453125,14,163,43,37,1222787,287260,5344,25322,17791,26834,27735,15498
0.896484375,14,117,43,37,1222787,287260,5344,25322,17791,26834,27735,15498
0.8984375,14,66,43,37,1222787,287260,5344,25322,17791,26834,27735,15498
0.900390625,14,19,43,37,1222787,287260,5344,25322,17791,26834,27735,15498
0.90234375,14,-25,43,37,1222787,287260,5344,25322,17791,26834,27735,15498
0.904296875,14,-60,43,37,1222787,287260,5344,25322,17791,26834,27735,15498
0.90625,14,-69,43,37,1222787,287260,5344,25322,17791,26834,27735,15498
0.908203125,14,-9,43,37,1222787,287260,5344,25322,17791,26834,27735,15498
0.91015625,14,90,43,37,1222787,287260,5344,25322,17791,26834,27735,15498
0.912109375,14,153,43,37,1222787,287260,5344,25322,17791,26834,27735,15498
0.9140625,14,162,43,37,1222787,287260,5344,25322,17791,26834,27735,15498
0.916015625,14,144,43,37,1222787,287260,5344,25322,17791,26834,27735,15498
0.91796875,14,131,43,37,1222787,287260,5344,25322,17791,26834,27735,15498
0.919921875,14,139,43,37,1222787,287260,5344,25322,17791,26834,27735,15498
0.921875,14,156,43,37,1222787,287260,5344,25322,17791,26834,27735,15498
0.923828125,14,154,43,37,1222787,287260,5344,25322,17791,26834,27735,15498
0.92578125,14,138,43,37,1222787,287260,5344,25322,17791,26834,27735,15498
0.927734375,14,137,43,37,1222787,287260,5344,25322,17791,26834,27735,15498
0.9296875,14,132,43,37,1222787,287260,5344,25322,17791,26834,27735,15498
0.931640625,14,123,43,37,1222787,287260,5344,25322,17791,26834,27735,15498
0.93359375,14,136,43,37,1222787,287260,5344,25322,17791,26834,27735,15498
0.935546875,14,180,43,37,1222787,287260,5344,25322,17791,26834,27735,15498
0.9375,15,232,43,37,1222787,287260,5344,25322,17791,26834,27735,15498
0.939453125,15,247,43,37,1222787,287260,5344,25322,17791,26834,27735,15498
0.94140625,15,209,43,37,1222787,287260,5344,25322,17791,26834,27735,15498
0.943359375,15,164,43,37,1222787,287260,5344,25322,17791,26834,27735,15498
0.9453125,15,146,43,37,1222787,287260,5344,25322,17791,26834,27735,15498
0.947265625,15,155,43,37,1222787,287260,5344,25322,17791,26834,27735,15498
0.94921875,15,180,43,37,1222787,287260,5344,25322,17791,26834,27735,15498
0.951171875,15,203,43,37,1222787,287260,5344,25322,17791,26834,27735,15498
0.953125,15,228,43,37,1222787,287260,5344,25322,17791,26834,27735,15498
0.955078125,15,230,43,37,1222787,287260,5344,25322,17791,26834,27735,15498
0.95703125,15,209,43,37,1222787,287260,5344,25322,17791,26834,27735,15498
0.958984375,15,182,43,37,1222787,287260,5344,25322,17791,26834,27735,15498
0.9609375,15,166,43,37,1222787,287260,5344,25322,17791,26834,27735,15498
0.962890625,15,172,43,37,1222787,287260,5344,25322,17791,26834,27735,15498
0.96484375,15,182,43,37,1222787,287260,5344,25322,17791,26834,27735,15498
0.966796875,15,160,43,37,1222787,287260,5344,25322,17791,26834,27735,15498
0.96875,15,132,43,37,1222787,287260,5344,25322,17791,26834,27735,15498
0.970703125,15,116,43,37,1222787,287260,5344,25322,17791,26834,27735,15498
0.97265625,15,106,43,37,1222787,287260,5344,25322,17791,26834,27735,15498
0.974609375,15,114,43,37,1222787,287260,5344,25322,17791,26834,27735,15498
0.9765625,15,135,43,37,1222787,287260,5344,25322,17791,26834,27735,15498
0.978515625,15,150,43,37,1222787,287260,5344,25322,17791,26834,27735,15498
0.98046875,15,167,43,37,1222787,287260,5344,25322,17791,26834,27735,15498
0.982421875,15,187,43,37,1222787,287260,5344,25322,17791,26834,27735,15498
0.984375,15,183,43,37,1222787,287260,5344,25322,17791,26834,27735,15498
0.986328125,15,168,43,37,1222787,287260,5344,25322,17791,26834,27735,15498
0.98828125,15,157,43,37,1222787,287260,5344,25322,17791,26834,27735,15498
0.990234375,15,144,43,37,1222787,287260,5344,25322,17791,26834,27735,15498
0.9921875,15,137,43,37,1222787,287260,5344,25322,17791,26834,27735,15498
0.994140625,15,148,43,37,1222787,287260,5344,25322,17791,26834,27735,15498
0.99609375,15,155,43,37,1222787,287260,5344,25322,17791,26834,27735,15498
0.998046875,15,154,43,37,1222787,287260,5344,25322,17791,26834,27735,15498
1,16,149,43,37,1222787,287260,5344,25322,17791,26834,27735,15498
1.001953125,16,136,43,37,1222787,287260,5344,25322,17791,26834,27735,15498
1.00390625,16,116,43,37,1222787,287260,5344,25322,17791,26834,27735,15498
1.005859375,16,90,43,37,1222787,287260,5344,25322,17791,26834,27735,15498
1.0078125,16,54,43,37,1222787,287260,5344,25322,17791,26834,27735,15498
1.009765625,16,22,43,37,1222787,287260,5344,25322,17791,26834,27735,15498
1.01171875,16,21,43,37,1222787,287260,5344,25322,17791,26834,27735,15498
1.013671875,16,48,43,37,1222787,287260,5344,25322,17791,26834,27735,15498
1.015625,16,85,43,37,1222787,287260,5344,25322,17791,26834,27735,15498
1.017578125,16,108,43,37,1222787,287260,5344,25322,17791,26834,27735,15498
1.01953125,16,100,43,37,1222787,287260,5344,25322,17791,26834,27735,15498
1.021484375,16,92,43,37,1222787,287260,5344,25322,17791,26834,27735,15498
1.0234375,16,99,43,37,1222787,287260,5344,25322,17791,26834,27735,15498
1.025390625,16,90,43,37,1222787,287260,5344,25322,17791,26834,27735,15498
1.02734375,16,68,43,37,1222787,287260,5344,25322,17791,26834,27735,15498
1.029296875,16,60,43,37,1222787,287260,5344,25322,17791,26834,27735,15498
1.03125,16,81,43,37,1222787,287260,5344,25322,17791,26834,27735,15498
1.033203125,16,89,43,37,1222787,287260,5344,25322,17791,26834,27735,15498
1.03515625,16,71,43,37,1222787,287260,5344,25322,17791,26834,27735,15498
1.037109375,16,39,43,37,1222787,287260,5344,25322,17791,26834,27735,15498
1.0390625,16,22,43,37,1222787,287260,5344,25322,17791,26834,27735,15498
1.041015625,16,28,43,37,1222787,287260,5344,25322,17791,26834,27735,15498
1.04296875,16,41,43,37,1222787,287260,5344,25322,17791,26834,27735,15498
1.044921875,16,12,43,37,1222787,287260,5344,25322,17791,26834,27735,15498
1.046875,16,-12,43,37,1222787,287260,5344,25322,17791,26834,27735,15498
1.048828125,16,-9,43,37,1222787,287260,5344,25322,17791,26834,27735,15498
1.05078125,16,13,43,37,1222787,287260,5344,25322,17791,26834,27735,15498
1.052734375,16,25,43,37,1222787,287260,5344,25322,17791,26834,27735,15498
1.0546875,16,20,43,37,1222787,287260,5344,25322,17791,26834,27735,15498
1.056640625,16,12,43,37,1222787,287260,5344,25322,17791,26834,27735,15498
1.05859375,16,19,43,37,1222787,287260,5344,25322,17791,26834,27735,15498
1.060546875,16,17,43,37,1222787,287260,5344,25322,17791,26834,27735,15498
1.0625,17,4,43,37,1222787,287260,5344,25322,17791,26834,27735,15498
1.064453125,17,11,43,37,1222787,287260,5344,25322,17791,26834,27735,15498
1.06640625,17,27,43,37,1222787,287260,5344,25322,17791,26834,27735,15498
1.068359375,17,33,43,37,1222787,287260,5344,25322,17791,26834,27735,15498
1.0703125,17,28,43,37,1222787,287260,5344,25322,17791,26834,27735,15498
1.072265625,17,22,43,37,1222787,287260,5344,25322,17791,26834,27735,15498
1.07421875,17,12,43,37,1222787,287260,5344,25322,17791,26834,27735,15498
1.076171875,17,1,43,37,1222787,287260,5344,25322,17791,26834,27735,15498
1.078125,17,-19,43,37,1222787,287260,5344,25322,17791,26834,27735,15498
1.080078125,17,-44,43,37,1222787,287260,5344,25322,17791,26834,27735,15498
1.08203125,17,-60,43,37,1222787,287260,5344,25322,17791,26834,27735,15498
1.083984375,17,-43,43,37,1222787,287260,5344,25322,17791,26834,27735,15498
1.0859375,17,-26,43,37,1222787,287260,5344,25322,17791,26834,27735,15498
1.087890625,17,-41,43,37,1222787,287260,5344,25322,17791,26834,27735,15498
1.08984375,17,-53,43,37,1222787,287260,5344,25322,17791,26834,27735,15498
1.091796875,17,-39,43,37,1222787,287260,5344,25322,17791,26834,27735,15498
1.09375,17,-14,43,37,1222787,287260,5344,25322,17791,26834,27735,15498
1.095703125,17,-17,43,37,1222787,287260,5344,25322,17791,26834,27735,15498
1.09765625,17,-38,43,37,1222787,287260,5344,25322,17791,26834,27735,15498
1.099609375,17,-60,43,37,1222787,287260,5344,25322,17791,26834,27735,15498
1.1015625,17,-65,43,37,1222787,287260,5344,25322,17791,26834,27735,15498
1.103515625,17,-54,43,37,1222787,287260,5344,25322,17791,26834,27735,15498
1.10546875,17,-44,43,37,1222787,287260,5344,25322,17791,26834,27735,15498
1.107421875,17,-24,56,23,1148440,123203,26446,5520,4348,22949,5050,13823
1.109375,17,-4,56,23,1148440,123203,26446,5520,4348,22949,5050,13823
1.111328125,17,-8,56,23,1148440,123203,26446,5520,4348,22949,5050,13823
1.11328125,17,-28,56,23,1148440,123203,26446,5520,4348,22949,5050,13823
1.115234375,17,-38,56,23,1148440,123203,26446,5520,4348,22949,5050,13823
1.1171875,17,-22,56,23,1148440,123203,26446,5520,4348,22949,5050,13823
1.119140625,17,-4,56,23,1148440,123203,26446,5520,4348,22949,5050,13823
1.12109375,17,9,56,23,1148440,123203,26446,5520,4348,22949,5050,13823
1.123046875,17,36,56,23,1148440,123203,26446,5520,4348,22949,5050,13823
1.125,18,68,56,23,1148440,123203,26446,5520,4348,22949,5050,13823
1.126953125,18,66,56,23,1148440,123203,26446,5520,4348,22949,5050,13823
1.12890625,18,71,56,23,1148440,123203,26446,5520,4348,22949,5050,13823
1.130859375,18,60,56,23,1148440,123203,26446,5520,4348,22949,5050,13823
1.1328125,18,42,56,23,1148440,123203,26446,5520,4348,22949,5050,13823
1.134765625,18,49,56,23,1148440,123203,26446,5520,4348,22949,5050,13823
1.13671875,18,58,56,23,1148440,123203,26446,5520,4348,22949,5050,13823
1.138671875,18,52,56,23,1148440,123203,26446,5520,4348,22949,5050,13823
1.140625,18,57,56,23,1148440,123203,26446,5520,4348,22949,5050,13823
1.142578125,18,89,56,23,1148440,123203,26446,5520,4348,22949,5050,13823
1.14453125,18,113,56,23,1148440,123203,26446,5520,4348,22949,5050,13823
1.146484375,18,124,56,23,1148440,123203,26446,5520,4348,22949,5050,13823
1.1484375,18,122,56,23,1148440,123203,26446,5520,4348,22949,5050,13823
1.150390625,18,130,56,23,1148440,123203,26446,5520,4348,22949,5050,13823
1.15234375,18,138,56,23,1148440,123203,26446,5520,4348,22949,5050,13823
1.154296875,18,130,56,23,1148440,123203,26446,5520,4348,22949,5050,13823
1.15625,18,101,56,23,1148440,123203,26446,5520,4348,22949,5050,13823
1.158203125,18,80,56,23,1148440,123203,26446,5520,4348,22949,5050,13823
1.16015625,18,74,56,23,1148440,123203,26446,5520,4348,22949,5050,13823
1.162109375,18,81,56,23,1148440,123203,26446,5520,4348,22949,5050,13823
1.1640625,18,84,56,23,1148440,123203,26446,5520,4348,22949,5050,13823
1.166015625,18,102,56,23,1148440,123203,26446,5520,4348,22949,5050,13823
1.16796875,18,131,56,23,1148440,123203,26446,5520,4348,22949,5050,13823
1.169921875,18,150,56,23,1148440,123203,26446,5520,4348,22949,5050,13823
1.171875,18,155,56,23,1148440,123203,26446,5520,4348,22949,5050,13823
1.173828125,18,163,56,23,1148440,123203,26446,5520,4348,22949,5050,13823
1.17578125,18,170,56,23,1148440,123203,26446,5520,4348,22949,5050,13823
1.177734375,18,194,56,23,1148440,123203,26446,5520,4348,22949,5050,13823
1.1796875,18,224,56,23,1148440,123203,26446,5520,4348,22949,5050,13823
1.181640625,18,243,56,23,1148440,123203,26446,5520,4348,22949,5050,13823
1.18359375,18,235,56,23,1148440,123203,26446,5520,4348,22949,5050,13823
1.185546875,18,216,56,23,1148440,123203,26446,5520,4348,22949,5050,13823
1.1875,19,202,56,23,1148440,123203,26446,5520,4348,22949,5050,13823
1.189453125,19,187,56,23,1148440,123203,26446,5520,4348,22949,5050,13823
1.19140625,19,173,56,23,1148440,123203,26446,5520,4348,22949,5050,13823
1.193359375,19,166,56,23,1148440,123203,26446,5520,4348,22949,5050,13823
1.1953125,19,171,56,23,1148440,123203,26446,5520,4348,22949,5050,13823
1.197265625,19,181,56,23,1148440,123203,26446,5520,4348,22949,5050,13823
1.19921875,19,180,56,23,1148440,123203,26446,5520,4348,22949,5050,13823
1.201171875,19,164,56,23,1148440,123203,26446,5520,4348,22949,5050,13823
1.203125,19,150,56,23,1148440,123203,26446,5520,4348,22949,5050,13823
1.205078125,19,138,56,23,1148440,123203,26446,5520,4348,22949,5050,13823
1.20703125,19,121,56,23,1148440,123203,26446,5520,4348,22949,5050,13823
1.208984375,19,116,56,23,1148440,123203,26446,5520,4348,22949,5050,13823
1.2109375,19,115,56,23,1148440,123203,26446,5520,4348,22949,5050,13823
1.212890625,19,109,56,23,1148440,123203,26446,5520,4348,22949,5050,13823
1.21484375,19,104,56,23,1148440,123203,26446,5520,4348,22949,5050,13823
1.216796875,19,90,56,23,1148440,123203,26446,5520,4348,22949,5050,13823
1.21875,19,82,56,23,1148440,123203,26446,5520,4348,22949,5050,13823
1.220703125,19,87,56,23,1148440,123203,26446,5520,4348,22949,5050,13823
1.22265625,19,106,56,23,1148440,123203,26446,5520,4348,22949,5050,13823
1.224609375,19,108,56,23,1148440,123203,26446,5520,4348,22949,5050,13823
1.2265625,19,101,56,23,1148440,123203,26446,5520,4348,22949,5050,13823
1.228515625,19,104,56,23,1148440,123203,26446,5520,4348,22949,5050,13823
1.23046875,19,122,56,23,1148440,123203,26446,5520,4348,22949,5050,13823
1.232421875,19,124,56,23,1148440,123203,26446,5520,4348,22949,5050,13823
1.234375,19,102,56,23,1148440,123203,26446,5520,4348,22949,5050,13823
1.236328125,19,70,56,23,1148440,123203,26446,5520,4348,22949,5050,13823
1.23828125,19,58,56,23,1148440,123203,26446,5520,4348,22949,5050,13823
1.240234375,19,58,56,23,1148440,123203,26446,5520,4348,22949,5050,13823
1.2421875,19,51,56,23,1148440,123203,26446,5520,4348,22949,5050,13823
1.244140625,19,34,56,23,1148440,123203,26446,5520,4348,22949,5050,13823
1.24609375,19,24,56,23,1148440,123203,26446,5520,4348,22949,5050,13823
1.248046875,19,24,56,23,1148440,123203,26446,5520,4348,22949,5050,13823
1.25,20,34,56,23,1148440,123203,26446,5520,4348,22949,5050,13823
1.251953125,20,40,56,23,1148440,123203,26446,5520,4348,22949,5050,13823
1.25390625,20,36,56,23,1148440,123203,26446,5520,4348,22949,5050,13823
1.255859375,20,27,56,23,1148440,123203,26446,5520,4348,22949,5050,13823
1.2578125,20,40,56,23,1148440,123203,26446,5520,4348,22949,5050,13823
1.259765625,20,70,56,23,1148440,123203,26446,5520,4348,22949,5050,13823
1.26171875,20,108,56,23,1148440,123203,26446,5520,4348,22949,5050,13823
1.263671875,20,140,56,23,1148440,123203,26446,5520,4348,22949,5050,13823
1.265625,20,140,56,23,1148440,123203,26446,5520,4348,22949,5050,13823
1.267578125,20,124,56,23,1148440,123203,26446,5520,4348,22949,5050,13823
1.26953125,20,113,56,23,1148440,123203,26446,5520,4348,22949,5050,13823
1.271484375,20,104,56,23,1148440,123203,26446,5520,4348,22949,5050,13823
1.2734375,20,90,56,23,1148440,123203,26446,5520,4348,22949,5050,13823
1.275390625,20,76,56,23,1148440,123203,26446,5520,4348,22949,5050,13823
1.27734375,20,59,56,23,1148440,123203,26446,5520,4348,22949,5050,13823
1.279296875,20,40,56,23,1148440,123203,26446,5520,4348,22949,5050,13823
1.28125,20,33,56,23,1148440,123203,26446,5520,4348,22949,5050,13823
1.283203125,20,55,56,23,1148440,123203,26446,5520,4348,22949,5050,13823
1.28515625,20,86,56,23,1148440,123203,26446,5520,4348,22949,5050,13823
1.287109375,20,87,56,23,1148440,123203,26446,5520,4348,22949,5050,13823
1.2890625,20,68,56,23,1148440,123203,26446,5520,4348,22949,5050,13823
1.291015625,20,64,56,23,1148440,123203,26446,5520,4348,22949,5050,13823
1.29296875,20,88,56,23,1148440,123203,26446,5520,4348,22949,5050,13823
1.294921875,20,97,56,23,1148440,123203,26446,5520,4348,22949,5050,13823
1.296875,20,73,56,23,1148440,123203,26446,5520,4348,22949,5050,13823
1.298828125,20,50,56,23,1148440,123203,26446,5520,4348,22949,5050,13823
1.30078125,20,42,56,23,1148440,123203,26446,5520,4348,22949,5050,13823
1.302734375,20,49,56,23,1148440,123203,26446,5520,4348,22949,5050,13823
1.3046875,20,43,56,23,1148440,123203,26446,5520,4348,22949,5050,13823
1.306640625,20,48,56,23,1148440,123203,26446,5520,4348,22949,5050,13823
1.30859375,20,67,56,23,1148440,123203,26446,5520,4348,22949,5050,13823
1.310546875,20,88,56,23,1148440,123203,26446,5520,4348,22949,5050,13823
1.3125,21,100,56,23,1148440,123203,26446,5520,4348,22949,5050,13823
1.314453125,21,89,56,23,1148440,123203,26446,5520,4348,22949,5050,13823
1.31640625,21,81,56,23,1148440,123203,26446,5520,4348,22949,5050,13823
1.318359375,21,80,56,23,1148440,123203,26446,5520,4348,22949,5050,13823
1.3203125,21,77,56,23,1148440,123203,26446,5520,4348,22949,5050,13823
1.322265625,21,74,56,23,1148440,123203,26446,5520,4348,22949,5050,13823
1.32421875,21,73,56,23,1148440,123203,26446,5520,4348,22949,5050,13823
1.326171875,21,64,56,23,1148440,123203,26446,5520,4348,22949,5050,13823
1.328125,21,65,56,23,1148440,123203,26446,5520,4348,22949,5050,13823
1.330078125,21,82,56,23,1148440,123203,26446,5520,4348,22949,5050,13823
1.33203125,21,102,56,23,1148440,123203,26446,5520,4348,22949,5050,13823
1.333984375,21,105,56,23,1148440,123203,26446,5520,4348,22949,5050,13823
1.3359375,21,88,56,23,1148440,123203,26446,5520,4348,22949,5050,13823
1.337890625,21,71,56,23,1148440,123203,26446,5520,4348,22949,5050,13823
1.33984375,21,67,56,23,1148440,123203,26446,5520,4348,22949,5050,13823
1.341796875,21,71,56,23,1148440,123203,26446,5520,4348,22949,5050,13823
1.34375,21,72,56,23,1148440,123203,26446,5520,4348,22949,5050,13823
1.345703125,21,84,56,23,1148440,123203,26446,5520,4348,22949,5050,13823
1.34765625,21,98,56,23,1148440,123203,26446,5520,4348,22949,5050,13823
1.349609375,21,70,56,23,1148440,123203,26446,5520,4348,22949,5050,13823
1.3515625,21,38,56,23,1148440,123203,26446,5520,4348,22949,5050,13823
1.353515625,21,26,56,23,1148440,123203,26446,5520,4348,22949,5050,13823
1.35546875,21,24,56,23,1148440,123203,26446,5520,4348,22949,5050,13823
1.357421875,21,6,56,23,1148440,123203,26446,5520,4348,22949,5050,13823
1.359375,21,-27,56,23,1148440,123203,26446,5520,4348,22949,5050,13823
1.361328125,21,-38,56,23,1148440,123203,26446,5520,4348,22949,5050,13823
1.36328125,21,-28,56,23,1148440,123203,26446,5520,4348,22949,5050,13823
1.365234375,21,0,56,23,1148440,123203,26446,5520,4348,22949,5050,13823
1.3671875,21,54,56,23,1148440,123203,26446,5520,4348,22949,5050,13823
1.369140625,21,118,56,23,1148440,123203,26446,5520,4348,22949,5050,13823
1.37109375,21,168,56,23,1148440,123203,26446,5520,4348,22949,5050,13823
1.373046875,21,194,56,23,1148440,123203,26446,5520,4348,22949,5050,13823
1.375,22,192,56,23,1148440,123203,26446,5520,4348,22949,5050,13823
1.376953125,22,166,56,23,1148440,123203,26446,5520,4348,22949,5050,13823
1.37890625,22,122,56,23,1148440,123203,26446,5520,4348,22949,5050,13823
1.380859375,22,82,56,23,1148440,123203,26446,5520,4348,22949,5050,13823
1.3828125,22,59,56,23,1148440,123203,26446,5520,4348,22949,5050,13823
1.384765625,22,49,56,23,1148440,123203,26446,5520,4348,22949,5050,13823
1.38671875,22,38,56,23,1148440,123203,26446,5520,4348,22949,5050,13823
1.388671875,22,38,56,23,1148440,123203,26446,5520,4348,22949,5050,13823
1.390625,22,53,56,23,1148440,123203,26446,5520,4348,22949,5050,13823
1.392578125,22,57,56,23,1148440,123203,26446,5520,4348,22949,5050,13823
1.39453125,22,35,56,23,1148440,123203,26446,5520,4348,22949,5050,13823
1.396484375,22,5,56,23,1148440,123203,26446,5520,4348,22949,5050,13823
1.3984375,22,-18,56,23,1148440,123203,26446,5520,4348,22949,5050,13823
1.400390625,22,-29,56,23,1148440,123203,26446,5520,4348,22949,5050,13823
1.40234375,22,-34,56,23,1148440,123203,26446,5520,4348,22949,5050,13823
1.404296875,22,-25,56,23,1148440,123203,26446,5520,4348,22949,5050,13823
1.40625,22,-17,56,23,1148440,123203,26446,5520,4348,22949,5050,13823
1.408203125,22,-14,56,23,1148440,123203,26446,5520,4348,22949,5050,13823
1.41015625,22,-27,56,23,1148440,123203,26446,5520,4348,22949,5050,13823
1.412109375,22,-28,56,23,1148440,123203,26446,5520,4348,22949,5050,13823
1.4140625,22,-7,56,23,1148440,123203,26446,5520,4348,22949,5050,13823
1.416015625,22,16,56,23,1148440,123203,26446,5520,4348,22949,5050,13823
1.41796875,22,23,56,23,1148440,123203,26446,5520,4348,22949,5050,13823
1.419921875,22,28,56,23,1148440,123203,26446,5520,4348,22949,5050,13823
1.421875,22,44,56,23,1148440,123203,26446,5520,4348,22949,5050,13823
1.423828125,22,42,56,23,1148440,123203,26446,5520,4348,22949,5050,13823
1.42578125,22,7,56,23,1148440,123203,26446,5520,4348,22949,5050,13823
1.427734375,22,-18,56,23,1148440,123203,26446,5520,4348,22949,5050,13823
1.4296875,22,-14,56,23,1148440,123203,26446,5520,4348,22949,5050,13823
1.431640625,22,-1,56,23,1148440,123203,26446,5520,4348,22949,5050,13823
1.43359375,22,22,56,23,1148440,123203,26446,5520,4348,22949,5050,13823
1.435546875,22,38,56,23,1148440,123203,26446,5520,4348,22949,5050,13823
1.4375,23,42,56,23,1148440,123203,26446,5520,4348,22949,5050,13823
1.439453125,23,52,56,23,1148440,123203,26446,5520,4348,22949,5050,13823
1.44140625,23,54,56,23,1148440,123203,26446,5520,4348,22949,5050,13823
1.443359375,23,36,56,23,1148440,123203,26446,5520,4348,22949,5050,13823
1.4453125,23,7,56,23,1148440,123203,26446,5520,4348,22949,5050,13823
1.447265625,23,1,56,23,1148440,123203,26446,5520,4348,22949,5050,13823
1.44921875,23,33,56,23,1148440,123203,26446,5520,4348,22949,5050,13823
1.451171875,23,70,56,23,1148440,123203,26446,5520,4348,22949,5050,13823
1.453125,23,75,56,23,1148440,123203,26446,5520,4348,22949,5050,13823
1.455078125,23,51,56,23,1148440,123203,26446,5520,4348,22949,5050,13823
1.45703125,23,23,56,23,1148440,123203,26446,5520,4348,22949,5050,13823
1.458984375,23,17,56,23,1148440,123203,26446,5520,4348,22949,5050,13823
1.4609375,23,27,56,23,1148440,123203,26446,5520,4348,22949,5050,13823
1.462890625,23,53,56,23,1148440,123203,26446,5520,4348,22949,5050,13823
1.46484375,23,80,56,23,1148440,123203,26446,5520,4348,22949,5050,13823
1.466796875,23,91,56,23,1148440,123203,26446,5520,4348,22949,5050,13823
1.46875,23,93,56,23,1148440,123203,26446,5520,4348,22949,5050,13823
1.470703125,23,91,56,23,1148440,123203,26446,5520,4348,22949,5050,13823
1.47265625,23,86,56,23,1148440,123203,26446,5520,4348,22949,5050,13823
1.474609375,23,76,56,23,1148440,123203,26446,5520,4348,22949,5050,13823
1.4765625,23,70,56,23,1148440,123203,26446,5520,4348,22949,5050,13823
1.478515625,23,80,56,23,1148440,123203,26446,5520,4348,22949,5050,13823
1.48046875,23,104,56,23,1148440,123203,26446,5520,4348,22949,5050,13823
1.482421875,23,123,56,23,1148440,123203,26446,5520,4348,22949,5050,13823
1.484375,23,130,56,23,1148440,123203,26446,5520,4348,22949,5050,13823
1.486328125,23,108,56,23,1148440,123203,26446,5520,4348,22949,5050,13823
1.48828125,23,73,56,23,1148440,123203,26446,5520,4348,22949,5050,13823
1.490234375,23,54,56,23,1148440,123203,26446,5520,4348,22949,5050,13823
1.4921875,23,42,56,23,1148440,123203,26446,5520,4348,22949,5050,13823
1.494140625,23,22,56,23,1148440,123203,26446,5520,4348,22949,5050,13823
1.49609375,23,11,56,23,1148440,123203,26446,5520,4348,22949,5050,13823
1.498046875,23,16,56,23,1148440,123203,26446,5520,4348,22949,5050,13823
1.5,24,26,56,23,1148440,123203,26446,5520,4348,22949,5050,13823
1.501953125,24,39,56,23,1148440,123203,26446,5520,4348,22949,5050,13823
1.50390625,24,36,56,23,1148440,123203,26446,5520,4348,22949,5050,13823
1.505859375,24,20,56,23,1148440,123203,26446,5520,4348,22949,5050,13823
1.5078125,24,11,56,23,1148440,123203,26446,5520,4348,22949,5050,13823
1.509765625,24,25,56,23,1148440,123203,26446,5520,4348,22949,5050,13823
1.51171875,24,56,56,23,1148440,123203,26446,5520,4348,22949,5050,13823
1.513671875,24,73,56,23,1148440,123203,26446,5520,4348,22949,5050,13823
1.515625,24,66,56,23,1148440,123203,26446,5520,4348,22949,5050,13823
1.517578125,24,42,56,23,1148440,123203,26446,5520,4348,22949,5050,13823
1.51953125,24,20,56,23,1148440,123203,26446,5520,4348,22949,5050,13823
1.521484375,24,6,56,23,1148440,123203,26446,5520,4348,22949,5050,13823
1.5234375,24,12,56,23,1148440,123203,26446,5520,4348,22949,5050,13823
1.525390625,24,22,56,23,1148440,123203,26446,5520,4348,22949,5050,13823
1.52734375,24,34,56,23,1148440,123203,26446,5520,4348,22949,5050,13823
1.529296875,24,53,56,23,1148440,123203,26446,5520,4348,22949,5050,13823
1.53125,24,64,56,23,1148440,123203,26446,5520,4348,22949,5050,13823
1.533203125,24,60,56,23,1148440,123203,26446,5520,4348,22949,5050,13823
1.53515625,24,50,56,23,1148440,123203,26446,5520,4348,22949,5050,13823
1.537109375,24,36,56,23,1148440,123203,26446,5520,4348,22949,5050,13823
1.5390625,24,35,56,23,1148440,123203,26446,5520,4348,22949,5050,13823
1.541015625,24,36,56,23,1148440,123203,26446,5520,4348,22949,5050,13823
1.54296875,24,26,56,23,1148440,123203,26446,5520,4348,22949,5050,13823
1.544921875,24,28,56,23,1148440,123203,26446,5520,4348,22949,5050,13823
1.546875,24,44,56,23,1148440,123203,26446,5520,4348,22949,5050,13823
1.548828125,24,54,56,23,1148440,123203,26446,5520,4348,22949,5050,13823
1.55078125,24,48,56,23,1148440,123203,26446,5520,4348,22949,5050,13823
1.552734375,24,36,56,23,1148440,123203,26446,5520,4348,22949,5050,13823
1.5546875,24,32,56,23,1148440,123203,26446,5520,4348,22949,5050,13823
1.556640625,24,21,56,23,1148440,123203,26446,5520,4348,22949,5050,13823
1.55859375,24,6,56,23,1148440,123203,26446,5520,4348,22949,5050,13823
1.560546875,24,0,56,23,1148440,123203,26446,5520,4348,22949,5050,13823
1.5625,25,10,56,23,1148440,123203,26446,5520,4348,22949,5050,13823
1.564453125,25,29,56,23,1148440,123203,26446,5520,4348,22949,5050,13823
1.56640625,25,45,56,23,1148440,123203,26446,5520,4348,22949,5050,13823
1.568359375,25,32,56,23,1148440,123203,26446,5520,4348,22949,5050,13823
1.5703125,25,-8,56,23,1148440,123203,26446,5520,4348,22949,5050,13823
1.572265625,25,-54,56,23,1148440,123203,26446,5520,4348,22949,5050,13823
1.57421875,25,-91,56,23,1148440,123203,26446,5520,4348,22949,5050,13823
1.576171875,25,-103,56,23,1148440,123203,26446,5520,4348,22949,5050,13823
1.578125,25,-72,56,23,1148440,123203,26446,5520,4348,22949,5050,13823
1.580078125,25,-23,56,23,1148440,123203,26446,5520,4348,22949,5050,13823
1.58203125,25,7,56,23,1148440,123203,26446,5520,4348,22949,5050,13823
1.583984375,25,24,56,23,1148440,123203,26446,5520,4348,22949,5050,13823
1.5859375,25,8,56,23,1148440,123203,26446,5520,4348,22949,5050,13823
1.587890625,25,-3,56,23,1148440,123203,26446,5520,4348,22949,5050,13823
1.58984375,25,26,56,23,1148440,123203,26446,5520,4348,22949,5050,13823
1.591796875,25,80,56,23,1148440,123203,26446,5520,4348,22949,5050,13823
1.59375,25,89,56,23,1148440,123203,26446,5520,4348,22949,5050,13823
1.595703125,25,66,56,23,1148440,123203,26446,5520,4348,22949,5050,13823
1.59765625,25,28,56,23,1148440,123203,26446,5520,4348,22949,5050,13823
1.599609375,25,1,56,23,1148440,123203,26446,5520,4348,22949,5050,13823
1.6015625,25,-4,56,23,1148440,123203,26446,5520,4348,22949,5050,13823
1.603515625,25,2,56,23,1148440,123203,26446,5520,4348,22949,5050,13823
1.60546875,25,27,56,23,1148440,123203,26446,5520,4348,22949,5050,13823
1.607421875,25,42,56,23,1148440,123203,26446,5520,4348,22949,5050,13823
1.609375,25,32,56,23,1148440,123203,26446,5520,4348,22949,5050,13823
1.611328125,25,10,56,23,1148440,123203,26446,5520,4348,22949,5050,13823
1.61328125,25,-2,56,23,1148440,123203,26446,5520,4348,22949,5050,13823
1.615234375,25,2,56,23,1148440,123203,26446,5520,4348,22949,5050,13823
1.6171875,25,23,56,23,1148440,123203,26446,5520,4348,22949,5050,13823
1.619140625,25,40,56,23,1148440,123203,26446,5520,4348,22949,5050,13823
1.62109375,25,40,56,23,1148440,123203,26446,5520,4348,22949,5050,13823
1.623046875,25,32,56,23,1148440,123203,26446,5520,4348,22949,5050,13823
1.625,26,6,56,23,1148440,123203,26446,5520,4348,22949,5050,13823
1.626953125,26,-12,56,23,1148440,123203,26446,5520,4348,22949,5050,13823
1.62890625,26,-13,56,23,1148440,123203,26446,5520,4348,22949,5050,13823
1.630859375,26,-13,56,23,1148440,123203,26446,5520,4348,22949,5050,13823
1.6328125,26,-14,56,23,1148440,123203,26446,5520,4348,22949,5050,13823
1.634765625,26,-23,56,23,1148440,123203,26446,5520,4348,22949,5050,13823
1.63671875,26,-11,56,23,1148440,123203,26446,5520,4348,22949,5050,13823
1.638671875,26,25,56,23,1148440,123203,26446,5520,4348,22949,5050,13823
1.640625,26,44,56,23,1148440,123203,26446,5520,4348,22949,5050,13823
1.642578125,26,25,56,23,1148440,123203,26446,5520,4348,22949,5050,13823
1.64453125,26,-4,56,23,1148440,123203,26446,5520,4348,22949,5050,13823
1.646484375,26,-7,56,23,1148440,123203,26446,5520,4348,22949,5050,13823
1.6484375,26,19,56,23,1148440,123203,26446,5520,4348,22949,5050,13823
1.650390625,26,41,56,23,1148440,123203,26446,5520,4348,22949,5050,13823
1.65234375,26,49,56,23,1148440,123203,26446,5520,4348,22949,5050,13823
1.654296875,26,43,56,23,1148440,123203,26446,5520,4348,22949,5050,13823
1.65625,26,32,56,23,1148440,123203,26446,5520,4348,22949,5050,13823
1.658203125,26,11,56,23,1148440,123203,26446,5520,4348,22949,5050,13823
1.66015625,26,5,56,23,1148440,123203,26446,5520,4348,22949,5050,13823
1.662109375,26,16,56,23,1148440,123203,26446,5520,4348,22949,5050,13823
1.6640625,26,12,56,23,1148440,123203,26446,5520,4348,22949,5050,13823
1.666015625,26,2,56,23,1148440,123203,26446,5520,4348,22949,5050,13823
1.66796875,26,5,56,23,1148440,123203,26446,5520,4348,22949,5050,13823
1.669921875,26,32,56,23,1148440,123203,26446,5520,4348,22949,5050,13823
1.671875,26,64,56,23,1148440,123203,26446,5520,4348,22949,5050,13823
1.673828125,26,85,56,23,1148440,123203,26446,5520,4348,22949,5050,13823
1.67578125,26,88,56,23,1148440,123203,26446,5520,4348,22949,5050,13823
1.677734375,26,81,56,23,1148440,123203,26446,5520,4348,22949,5050,13823
1.6796875,26,75,56,23,1148440,123203,26446,5520,4348,22949,5050,13823
1.681640625,26,75,56,23,1148440,123203,26446,5520,4348,22949,5050,13823
1.68359375,26,72,56,23,1148440,123203,26446,5520,4348,22949,5050,13823
1.685546875,26,61,56,23,1148440,123203,26446,5520,4348,22949,5050,13823
1.6875,27,64,56,23,1148440,123203,26446,5520,4348,22949,5050,13823
1.689453125,27,71,56,23,1148440,123203,26446,5520,4348,22949,5050,13823
1.69140625,27,72,56,23,1148440,123203,26446,5520,4348,22949,5050,13823
1.693359375,27,91,56,23,1148440,123203,26446,5520,4348,22949,5050,13823
1.6953125,27,128,56,23,1148440,123203,26446,5520,4348,22949,5050,13823
1.697265625,27,138,56,23,1148440,123203,26446,5520,4348,22949,5050,13823
1.69921875,27,119,56,23,1148440,123203,26446,5520,4348,22949,5050,13823
1.701171875,27,86,56,23,1148440,123203,26446,5520,4348,22949,5050,13823
1.703125,27,29,56,23,1148440,123203,26446,5520,4348,22949,5050,13823
1.705078125,27,2,56,23,1148440,123203,26446,5520,4348,22949,5050,13823
1.70703125,27,-17,56,23,1148440,123203,26446,5520,4348,22949,5050,13823
1.708984375,27,-9,56,23,1148440,123203,26446,5520,4348,22949,5050,13823
1.7109375,27,34,56,23,1148440,123203,26446,5520,4348,22949,5050,13823
1.712890625,27,92,56,23,1148440,123203,26446,5520,4348,22949,5050,13823
1.71484375,27,124,56,23,1148440,123203,26446,5520,4348,22949,5050,13823
1.716796875,27,113,56,23,1148440,123203,26446,5520,4348,22949,5050,13823
1.71875,27,75,56,23,1148440,123203,26446,5520,4348,22949,5050,13823
1.720703125,27,44,56,23,1148440,123203,26446,5520,4348,22949,5050,13823
1.72265625,27,37,56,23,1148440,123203,26446,5520,4348,22949,5050,13823
1.724609375,27,52,56,23,1148440,123203,26446,5520,4348,22949,5050,13823
1.7265625,27,68,56,23,1148440,123203,26446,5520,4348,22949,5050,13823
1.728515625,27,83,56,23,1148440,123203,26446,5520,4348,22949,5050,13823
1.73046875,27,84,56,23,1148440,123203,26446,5520,4348,22949,5050,13823
1.732421875,27,56,56,23,1148440,123203,26446,5520,4348,22949,5050,13823
1.734375,27,17,56,23,1148440,123203,26446,5520,4348,22949,5050,13823
1.736328125,27,-8,56,23,1148440,123203,26446,5520,4348,22949,5050,13823
1.73828125,27,2,56,23,1148440,123203,26446,5520,4348,22949,5050,13823
1.740234375,27,22,56,23,1148440,123203,26446,5520,4348,22949,5050,13823
1.7421875,27,32,56,23,1148440,123203,26446,5520,4348,22949,5050,13823
1.744140625,27,18,56,23,1148440,123203,26446,5520,4348,22949,5050,13823
1.74609375,27,10,56,23,1148440,123203,26446,5520,4348,22949,5050,13823
1.748046875,27,32,56,23,1148440,123203,26446,5520,4348,22949,5050,13823
1.75,28,51,56,23,1148440,123203,26446,5520,4348,22949,5050,13823
1.751953125,28,52,56,23,1148440,123203,26446,5520,4348,22949,5050,13823
1.75390625,28,44,56,23,1148440,123203,26446,5520,4348,22949,5050,13823
1.755859375,28,53,56,23,1148440,123203,26446,5520,4348,22949,5050,13823
1.7578125,28,52,56,23,1148440,123203,26446,5520,4348,22949,5050,13823
1.759765625,28,34,56,23,1148440,123203,26446,5520,4348,22949,5050,13823
1.76171875,28,21,56,23,1148440,123203,26446,5520,4348,22949,5050,13823
1.763671875,28,16,56,23,1148440,123203,26446,5520,4348,22949,5050,13823
1.765625,28,16,56,23,1148440,123203,26446,5520,4348,22949,5050,13823
1.767578125,28,22,56,23,1148440,123203,26446,5520,4348,22949,5050,13823
1.76953125,28,34,56,23,1148440,123203,26446,5520,4348,22949,5050,13823
1.771484375,28,33,56,23,1148440,123203,26446,5520,4348,22949,5050,13823
1.7734375,28,24,56,23,1148440,123203,26446,5520,4348,22949,5050,13823
1.775390625,28,21,56,23,1148440,123203,26446,5520,4348,22949,5050,13823
1.77734375,28,17,56,23,1148440,123203,26446,5520,4348,22949,5050,13823
1.779296875,28,26,56,23,1148440,123203,26446,5520,4348,22949,5050,13823
1.78125,28,65,56,23,1148440,123203,26446,5520,4348,22949,5050,13823
1.783203125,28,101,56,23,1148440,123203,26446,5520,4348,22949,5050,13823
1.78515625,28,102,56,23,1148440,123203,26446,5520,4348,22949,5050,13823
1.787109375,28,73,56,23,1148440,123203,26446,5520,4348,22949,5050,13823
1.7890625,28,54,56,23,1148440,123203,26446,5520,4348,22949,5050,13823
1.791015625,28,59,56,23,1148440,123203,26446,5520,4348,22949,5050,13823
1.79296875,28,80,56,23,1148440,123203,26446,5520,4348,22949,5050,13823
1.794921875,28,80,56,23,1148440,123203,26446,5520,4348,22949,5050,13823
1.796875,28,60,56,23,1148440,123203,26446,5520,4348,22949,5050,13823
1.798828125,28,54,56,23,1148440,123203,26446,5520,4348,22949,5050,13823
1.80078125,28,64,56,23,1148440,123203,26446,5520,4348,22949,5050,13823
1.802734375,28,64,56,23,1148440,123203,26446,5520,4348,22949,5050,13823
1.8046875,28,54,56,23,1148440,123203,26446,5520,4348,22949,5050,13823
1.806640625,28,64,56,23,1148440,123203,26446,5520,4348,22949,5050,13823
1.80859375,28,77,56,23,1148440,123203,26446,5520,4348,22949,5050,13823
1.810546875,28,84,56,23,1148440,123203,26446,5520,4348,22949,5050,13823
1.8125,29,75,56,23,1148440,123203,26446,5520,4348,22949,5050,13823
1.814453125,29,70,56,23,1148440,123203,26446,5520,4348,22949,5050,13823
1.81640625,29,71,56,23,1148440,123203,26446,5520,4348,22949,5050,13823
1.818359375,29,64,56,23,1148440,123203,26446,5520,4348,22949,5050,13823
1.8203125,29,49,56,23,1148440,123203,26446,5520,4348,22949,5050,13823
1.822265625,29,40,56,23,1148440,123203,26446,5520,4348,22949,5050,13823
1.82421875,29,57,56,23,1148440,123203,26446,5520,4348,22949,5050,13823
1.826171875,29,89,56,23,1148440,123203,26446,5520,4348,22949,5050,13823
1.828125,29,103,56,23,1148440,123203,26446,5520,4348,22949,5050,13823
1.830078125,29,86,56,23,1148440,123203,26446,5520,4348,22949,5050,13823
1.83203125,29,60,56,23,1148440,123203,26446,5520,4348,22949,5050,13823
1.833984375,29,44,56,23,1148440,123203,26446,5520,4348,22949,5050,13823
1.8359375,29,44,56,23,1148440,123203,26446,5520,4348,22949,5050,13823
1.837890625,29,39,56,23,1148440,123203,26446,5520,4348,22949,5050,13823
1.83984375,29,24,56,23,1148440,123203,26446,5520,4348,22949,5050,13823
1.841796875,29,32,56,23,1148440,123203,26446,5520,4348,22949,5050,13823
1.84375,29,57,56,23,1148440,123203,26446,5520,4348,22949,5050,13823
1.845703125,29,84,56,23,1148440,123203,26446,5520,4348,22949,5050,13823
1.84765625,29,84,56,23,1148440,123203,26446,5520,4348,22949,5050,13823
1.849609375,29,59,56,23,1148440,123203,26446,5520,4348,22949,5050,13823
1.8515625,29,48,56,23,1148440,123203,26446,5520,4348,22949,5050,13823
1.853515625,29,43,56,23,1148440,123203,26446,5520,4348,22949,5050,13823
1.85546875,29,45,56,23,1148440,123203,26446,5520,4348,22949,5050,13823
1.857421875,29,38,56,23,1148440,123203,26446,5520,4348,22949,5050,13823
1.859375,29,20,56,23,1148440,123203,26446,5520,4348,22949,5050,13823
1.861328125,29,20,56,23,1148440,123203,26446,5520,4348,22949,5050,13823
1.86328125,29,21,56,23,1148440,123203,26446,5520,4348,22949,5050,13823
1.865234375,29,2,56,23,1148440,123203,26446,5520,4348,22949,5050,13823
1.8671875,29,-19,56,23,1148440,123203,26446,5520,4348,22949,5050,13823
1.869140625,29,-7,56,23,1148440,123203,26446,5520,4348,22949,5050,13823
1.87109375,29,10,56,23,1148440,123203,26446,5520,4348,22949,5050,13823
1.873046875,29,7,56,23,1148440,123203,26446,5520,4348,22949,5050,13823
1.875,30,12,56,23,1148440,123203,26446,5520,4348,22949,5050,13823
1.876953125,30,34,56,23,1148440,123203,26446,5520,4348,22949,5050,13823
1.87890625,30,44,56,23,1148440,123203,26446,5520,4348,22949,5050,13823
1.880859375,30,24,56,23,1148440,123203,26446,5520,4348,22949,5050,13823
1.8828125,30,-8,56,23,1148440,123203,26446,5520,4348,22949,5050,13823
1.884765625,30,-26,56,23,1148440,123203,26446,5520,4348,22949,5050,13823
1.88671875,30,-4,56,23,1148440,123203,26446,5520,4348,22949,5050,13823
1.888671875,30,32,56,23,1148440,123203,26446,5520,4348,22949,5050,13823
1.890625,30,35,56,23,1148440,123203,26446,5520,4348,22949,5050,13823
1.892578125,30,11,56,23,1148440,123203,26446,5520,4348,22949,5050,13823
1.89453125,30,5,56,23,1148440,123203,26446,5520,4348,22949,5050,13823
1.896484375,30,33,56,23,1148440,123203,26446,5520,4348,22949,5050,13823
1.8984375,30,65,56,23,1148440,123203,26446,5520,4348,22949,5050,13823
1.900390625,30,86,56,23,1148440,123203,26446,5520,4348,22949,5050,13823
1.90234375,30,92,56,23,1148440,123203,26446,5520,4348,22949,5050,13823
1.904296875,30,80,56,23,1148440,123203,26446,5520,4348,22949,5050,13823
1.90625,30,71,56,23,1148440,123203,26446,5520,4348,22949,5050,13823
1.908203125,30,80,56,23,1148440,123203,26446,5520,4348,22949,5050,13823
1.91015625,30,76,56,23,1148440,123203,26446,5520,4348,22949,5050,13823
1.912109375,30,58,56,23,1148440,123203,26446,5520,4348,22949,5050,13823
1.9140625,30,49,56,23,1148440,123203,26446,5520,4348,22949,5050,13823
1.916015625,30,33,56,23,1148440,123203,26446,5520,4348,22949,5050,13823
1.91796875,30,9,56,23,1148440,123203,26446,5520,4348,22949,5050,13823
1.919921875,30,17,56,23,1148440,123203,26446,5520,4348,22949,5050,13823
1.921875,30,58,56,23,1148440,123203,26446,5520,4348,22949,5050,13823
1.923828125,30,93,56,23,1148440,123203,26446,5520,4348,22949,5050,13823
1.92578125,30,88,56,23,1148440,123203,26446,5520,4348,22949,5050,13823
1.927734375,30,64,56,23,1148440,123203,26446,5520,4348,22949,5050,13823
1.9296875,30,43,56,23,1148440,123203,26446,5520,4348,22949,5050,13823
1.931640625,30,40,56,23,1148440,123203,26446,5520,4348,22949,5050,13823
1.93359375,30,32,56,23,1148440,123203,26446,5520,4348,22949,5050,13823
1.935546875,30,18,56,23,1148440,123203,26446,5520,4348,22949,5050,13823
1.9375,31,24,56,23,1148440,123203,26446,5520,4348,22949,5050,13823
1.939453125,31,50,56,23,1148440,123203,26446,5520,4348,22949,5050,13823
1.94140625,31,71,56,23,1148440,123203,26446,5520,4348,22949,5050,13823
1.943359375,31,84,56,23,1148440,123203,26446,5520,4348,22949,5050,13823
1.9453125,31,92,56,23,1148440,123203,26446,5520,4348,22949,5050,13823
1.947265625,31,119,56,23,1148440,123203,26446,5520,4348,22949,5050,13823
1.94921875,31,150,56,23,1148440,123203,26446,5520,4348,22949,5050,13823
1.951171875,31,149,56,23,1148440,123203,26446,5520,4348,22949,5050,13823
1.953125,31,124,56,23,1148440,123203,26446,5520,4348,22949,5050,13823
1.955078125,31,102,56,23,1148440,123203,26446,5520,4348,22949,5050,13823
1.95703125,31,98,56,23,1148440,123203,26446,5520,4348,22949,5050,13823
1.958984375,31,96,56,23,1148440,123203,26446,5520,4348,22949,5050,13823
1.9609375,31,81,56,23,1148440,123203,26446,5520,4348,22949,5050,13823
1.962890625,31,67,56,23,1148440,123203,26446,5520,4348,22949,5050,13823
1.96484375,31,70,56,23,1148440,123203,26446,5520,4348,22949,5050,13823
1.966796875,31,64,56,23,1148440,123203,26446,5520,4348,22949,5050,13823
1.96875,31,36,56,23,1148440,123203,26446,5520,4348,22949,5050,13823
1.970703125,31,33,56,23,1148440,123203,26446,5520,4348,22949,5050,13823
1.97265625,31,53,56,23,1148440,123203,26446,5520,4348,22949,5050,13823
1.974609375,31,60,56,23,1148440,123203,26446,5520,4348,22949,5050,13823
1.9765625,31,55,56,23,1148440,123203,26446,5520,4348,22949,5050,13823
1.978515625,31,60,56,23,1148440,123203,26446,5520,4348,22949,5050,13823
1.98046875,31,69,56,23,1148440,123203,26446,5520,4348,22949,5050,13823
1.982421875,31,65,56,23,1148440,123203,26446,5520,4348,22949,5050,13823
1.984375,31,58,56,23,1148440,123203,26446,5520,4348,22949,5050,13823
1.986328125,31,66,56,23,1148440,123203,26446,5520,4348,22949,5050,13823
1.98828125,31,54,56,23,1148440,123203,26446,5520,4348,22949,5050,13823
1.990234375,31,38,56,23,1148440,123203,26446,5520,4348,22949,5050,13823
1.9921875,31,35,56,23,1148440,123203,26446,5520,4348,22949,5050,13823
1.994140625,31,43,56,23,1148440,123203,26446,5520,4348,22949,5050,13823
1.99609375,31,42,56,23,1148440,123203,26446,5520,4348,22949,5050,13823
1.998046875,31,29,56,23,1148440,123203,26446,5520,4348,22949,5050,13823
2,32,18,56,23,1148440,123203,26446,5520,4348,22949,5050,13823
2.001953125,32,17,56,23,1148440,123203,26446,5520,4348,22949,5050,13823
2.00390625,32,26,56,23,1148440,123203,26446,5520,4348,22949,5050,13823
2.005859375,32,37,56,23,1148440,123203,26446,5520,4348,22949,5050,13823
2.0078125,32,38,56,23,1148440,123203,26446,5520,4348,22949,5050,13823
2.009765625,32,33,56,23,1148440,123203,26446,5520,4348,22949,5050,13823
2.01171875,32,25,56,23,1148440,123203,26446,5520,4348,22949,5050,13823
2.013671875,32,8,56,23,1148440,123203,26446,5520,4348,22949,5050,13823
2.015625,32,-12,56,23,1148440,123203,26446,5520,4348,22949,5050,13823
2.017578125,32,-20,56,23,1148440,123203,26446,5520,4348,22949,5050,13823
2.01953125,32,2,56,23,1148440,123203,26446,5520,4348,22949,5050,13823
2.021484375,32,27,56,23,1148440,123203,26446,5520,4348,22949,5050,13823
2.0234375,32,41,56,23,1148440,123203,26446,5520,4348,22949,5050,13823
2.025390625,32,51,56,23,1148440,123203,26446,5520,4348,22949,5050,13823
2.02734375,32,57,56,23,1148440,123203,26446,5520,4348,22949,5050,13823
2.029296875,32,65,56,23,1148440,123203,26446,5520,4348,22949,5050,13823
2.03125,32,53,56,23,1148440,123203,26446,5520,4348,22949,5050,13823
2.033203125,32,40,56,23,1148440,123203,26446,5520,4348,22949,5050,13823
2.03515625,32,34,56,23,1148440,123203,26446,5520,4348,22949,5050,13823
2.037109375,32,42,56,23,1148440,123203,26446,5520,4348,22949,5050,13823
2.0390625,32,57,56,23,1148440,123203,26446,5520,4348,22949,5050,13823
2.041015625,32,55,56,23,1148440,123203,26446,5520,4348,22949,5050,13823
2.04296875,32,42,56,23,1148440,123203,26446,5520,4348,22949,5050,13823
2.044921875,32,37,56,23,1148440,123203,26446,5520,4348,22949,5050,13823
2.046875,32,49,56,23,1148440,123203,26446,5520,4348,22949,5050,13823
2.048828125,32,69,56,23,1148440,123203,26446,5520,4348,22949,5050,13823
2.05078125,32,82,56,23,1148440,123203,26446,5520,4348,22949,5050,13823
2.052734375,32,80,56,23,1148440,123203,26446,5520,4348,22949,5050,13823
2.0546875,32,60,56,23,1148440,123203,26446,5520,4348,22949,5050,13823
2.056640625,32,32,56,23,1148440,123203,26446,5520,4348,22949,5050,13823
2.05859375,32,24,56,23,1148440,123203,26446,5520,4348,22949,5050,13823
2.060546875,32,57,56,23,1148440,123203,26446,5520,4348,22949,5050,13823
2.0625,33,102,56,23,1148440,123203,26446,5520,4348,22949,5050,13823
2.064453125,33,121,56,23,1148440,123203,26446,5520,4348,22949,5050,13823
2.06640625,33,112,56,23,1148440,123203,26446,5520,4348,22949,5050,13823
2.068359375,33,96,56,23,1148440,123203,26446,5520,4348,22949,5050,13823
2.0703125,33,90,56,23,1148440,123203,26446,5520,4348,22949,5050,13823
2.072265625,33,90,56,23,1148440,123203,26446,5520,4348,22949,5050,13823
2.07421875,33,91,56,23,1148440,123203,26446,5520,4348,22949,5050,13823
2.076171875,33,104,56,23,1148440,123203,26446,5520,4348,22949,5050,13823
2.078125,33,122,56,23,1148440,123203,26446,5520,4348,22949,5050,13823
2.080078125,33,152,56,23,1148440,123203,26446,5520,4348,22949,5050,13823
2.08203125,33,184,56,23,1148440,123203,26446,5520,4348,22949,5050,13823
2.083984375,33,187,56,23,1148440,123203,26446,5520,4348,22949,5050,13823
2.0859375,33,162,56,23,1148440,123203,26446,5520,4348,22949,5050,13823
2.087890625,33,146,56,23,1148440,123203,26446,5520,4348,22949,5050,13823
2.08984375,33,146,56,23,1148440,123203,26446,5520,4348,22949,5050,13823
2.091796875,33,140,56,23,1148440,123203,26446,5520,4348,22949,5050,13823
2.09375,33,131,56,23,1148440,123203,26446,5520,4348,22949,5050,13823
2.095703125,33,123,56,23,1148440,123203,26446,5520,4348,22949,5050,13823
2.09765625,33,140,56,23,1148440,123203,26446,5520,4348,22949,5050,13823
2.099609375,33,165,56,23,1148440,123203,26446,5520,4348,22949,5050,13823
2.1015625,33,171,54,27,311981,50363,36910,12922,15892,15615,19845,9104
2.103515625,33,167,54,27,311981,50363,36910,12922,15892,15615,19845,9104
2.10546875,33,165,54,27,311981,50363,36910,12922,15892,15615,19845,9104
2.107421875,33,168,54,27,311981,50363,36910,12922,15892,15615,19845,9104
2.109375,33,168,54,27,311981,50363,36910,12922,15892,15615,19845,9104
2.111328125,33,168,54,27,311981,50363,36910,12922,15892,15615,19845,9104
2.11328125,33,188,54,27,311981,50363,36910,12922,15892,15615,19845,9104
2.115234375,33,201,54,27,311981,50363,36910,12922,15892,15615,19845,9104
2.1171875,33,182,54,27,311981,50363,36910,12922,15892,15615,19845,9104
2.119140625,33,163,54,27,311981,50363,36910,12922,15892,15615,19845,9104
2.12109375,33,164,54,27,311981,50363,36910,12922,15892,15615,19845,9104
2.123046875,33,163,54,27,311981,50363,36910,12922,15892,15615,19845,9104
2.125,34,153,54,27,311981,50363,36910,12922,15892,15615,19845,9104
2.126953125,34,136,54,27,311981,50363,36910,12922,15892,15615,19845,9104
2.12890625,34,118,54,27,311981,50363,36910,12922,15892,15615,19845,9104
2.130859375,34,106,54,27,311981,50363,36910,12922,15892,15615,19845,9104
2.1328125,34,101,54,27,311981,50363,36910,12922,15892,15615,19845,9104
2.134765625,34,98,54,27,311981,50363,36910,12922,15892,15615,19845,9104
2.13671875,34,92,54,27,311981,50363,36910,12922,15892,15615,19845,9104
2.138671875,34,100,54,27,311981,50363,36910,12922,15892,15615,19845,9104
2.140625,34,100,54,27,311981,50363,36910,12922,15892,15615,19845,9104
2.142578125,34,103,54,27,311981,50363,36910,12922,15892,15615,19845,9104
2.14453125,34,113,54,27,311981,50363,36910,12922,15892,15615,19845,9104
2.146484375,34,118,54,27,311981,50363,36910,12922,15892,15615,19845,9104
2.1484375,34,117,54,27,311981,50363,36910,12922,15892,15615,19845,9104
2.150390625,34,119,54,27,311981,50363,36910,12922,15892,15615,19845,9104
2.15234375,34,115,54,27,311981,50363,36910,12922,15892,15615,19845,9104
2.154296875,34,98,54,27,311981,50363,36910,12922,15892,15615,19845,9104
2.15625,34,82,54,27,311981,50363,36910,12922,15892,15615,19845,9104
2.158203125,34,74,54,27,311981,50363,36910,12922,15892,15615,19845,9104
2.16015625,34,80,54,27,311981,50363,36910,12922,15892,15615,19845,9104
2.162109375,34,72,54,27,311981,50363,36910,12922,15892,15615,19845,9104
2.1640625,34,80,54,27,311981,50363,36910,12922,15892,15615,19845,9104
2.166015625,34,87,54,27,311981,50363,36910,12922,15892,15615,19845,9104
2.16796875,34,96,54,27,311981,50363,36910,12922,15892,15615,19845,9104
2.169921875,34,100,54,27,311981,50363,36910,12922,15892,15615,19845,9104
2.171875,34,89,54,27,311981,50363,36910,12922,15892,15615,19845,9104
2.173828125,34,85,54,27,311981,50363,36910,12922,15892,15615,19845,9104
2.17578125,34,75,54,27,311981,50363,36910,12922,15892,15615,19845,9104
2.177734375,34,64,54,27,311981,50363,36910,12922,15892,15615,19845,9104
2.1796875,34,74,54,27,311981,50363,36910,12922,15892,15615,19845,9104
2.181640625,34,83,54,27,311981,50363,36910,12922,15892,15615,19845,9104
2.18359375,34,64,54,27,311981,50363,36910,12922,15892,15615,19845,9104
2.185546875,34,37,54,27,311981,50363,36910,12922,15892,15615,19845,9104
2.1875,35,24,54,27,311981,50363,36910,12922,15892,15615,19845,9104
2.189453125,35,9,54,27,311981,50363,36910,12922,15892,15615,19845,9104
2.19140625,35,-7,54,27,311981,50363,36910,12922,15892,15615,19845,9104
2.193359375,35,-28,54,27,311981,50363,36910,12922,15892,15615,19845,9104
2.1953125,35,-102,54,27,311981,50363,36910,12922,15892,15615,19845,9104
2.197265625,35,-202,54,27,311981,50363,36910,12922,15892,15615,19845,9104
2.19921875,35,-278,54,27,311981,50363,36910,12922,15892,15615,19845,9104
2.201171875,35,-311,54,27,311981,50363,36910,12922,15892,15615,19845,9104
2.203125,35,-295,54,27,311981,50363,36910,12922,15892,15615,19845,9104
2.205078125,35,-289,54,27,311981,50363,36910,12922,15892,15615,19845,9104
2.20703125,35,-364,54,27,311981,50363,36910,12922,15892,15615,19845,9104
2.208984375,35,-507,54,27,311981,50363,36910,12922,15892,15615,19845,9104
2.2109375,35,-582,54,27,311981,50363,36910,12922,15892,15615,19845,9104
2.212890625,35,-504,54,27,311981,50363,36910,12922,15892,15615,19845,9104
2.21484375,35,-381,54,27,311981,50363,36910,12922,15892,15615,19845,9104
2.216796875,35,-451,54,27,311981,50363,36910,12922,15892,15615,19845,9104
2.21875,35,-628,54,27,311981,50363,36910,12922,15892,15615,19845,9104
2.220703125,35,-590,54,27,311981,50363,36910,12922,15892,15615,19845,9104
2.22265625,35,-361,54,27,311981,50363,36910,12922,15892,15615,19845,9104
2.224609375,35,-167,54,27,311981,50363,36910,12922,15892,15615,19845,9104
2.2265625,35,-73,54,27,311981,50363,36910,12922,15892,15615,19845,9104
2.228515625,35,-22,54,27,311981,50363,36910,12922,15892,15615,19845,9104
2.23046875,35,35,54,27,311981,50363,36910,12922,15892,15615,19845,9104
2.232421875,35,104,54,27,311981,50363,36910,12922,15892,15615,19845,9104
2.234375,35,177,54,27,311981,50363,36910,12922,15892,15615,19845,9104
2.236328125,35,208,54,27,311981,50363,36910,12922,15892,15615,19845,9104
2.23828125,35,185,54,27,311981,50363,36910,12922,15892,15615,19845,9104
2.240234375,35,103,54,27,311981,50363,36910,12922,15892,15615,19845,9104
2.2421875,35,-6,54,27,311981,50363,36910,12922,15892,15615,19845,9104
2.244140625,35,-119,54,27,311981,50363,36910,12922,15892,15615,19845,9104
2.24609375,35,-314,54,27,311981,50363,36910,12922,15892,15615,19845,9104
2.248046875,35,-626,54,27,311981,50363,36910,12922,15892,15615,19845,9104
2.25,36,-835,54,27,311981,50363,36910,12922,15892,15615,19845,9104
2.251953125,36,-791,54,27,311981,50363,36910,12922,15892,15615,19845,9104
2.25390625,36,-611,54,27,311981,50363,36910,12922,15892,15615,19845,9104
2.255859375,36,-437,54,27,311981,50363,36910,12922,15892,15615,19845,9104
2.2578125,36,-308,54,27,311981,50363,36910,12922,15892,15615,19845,9104
2.259765625,36,-179,54,27,311981,50363,36910,12922,15892,15615,19845,9104
2.26171875,36,-2,54,27,311981,50363,36910,12922,15892,15615,19845,9104
2.263671875,36,198,54,27,311981,50363,36910,12922,15892,15615,19845,9104
2.265625,36,371,54,27,311981,50363,36910,12922,15892,15615,19845,9104
2.267578125,36,470,54,27,311981,50363,36910,12922,15892,15615,19845,9104
2.26953125,36,457,54,27,311981,50363,36910,12922,15892,15615,19845,9104
2.271484375,36,362,54,27,311981,50363,36910,12922,15892,15615,19845,9104
2.2734375,36,262,54,27,311981,50363,36910,12922,15892,15615,19845,9104
2.275390625,36,208,54,27,311981,50363,36910,12922,15892,15615,19845,9104
2.27734375,36,220,54,27,311981,50363,36910,12922,15892,15615,19845,9104
2.279296875,36,296,54,27,311981,50363,36910,12922,15892,15615,19845,9104
2.28125,36,372,54,27,311981,50363,36910,12922,15892,15615,19845,9104
2.283203125,36,405,54,27,311981,50363,36910,12922,15892,15615,19845,9104
2.28515625,36,395,54,27,311981,50363,36910,12922,15892,15615,19845,9104
2.287109375,36,361,54,27,311981,50363,36910,12922,15892,15615,19845,9104
2.2890625,36,317,54,27,311981,50363,36910,12922,15892,15615,19845,9104
2.291015625,36,262,54,27,311981,50363,36910,12922,15892,15615,19845,9104
2.29296875,36,215,54,27,311981,50363,36910,12922,15892,15615,19845,9104
2.294921875,36,205,54,27,311981,50363,36910,12922,15892,15615,19845,9104
2.296875,36,234,54,27,311981,50363,36910,12922,15892,15615,19845,9104
2.298828125,36,289,54,27,311981,50363,36910,12922,15892,15615,19845,9104
2.30078125,36,329,54,27,311981,50363,36910,12922,15892,15615,19845,9104
2.302734375,36,323,54,27,311981,50363,36910,12922,15892,15615,19845,9104
2.3046875,36,284,54,27,311981,50363,36910,12922,15892,15615,19845,9104
2.306640625,36,251,54,27,311981,50363,36910,12922,15892,15615,19845,9104
2.30859375,36,229,54,27,311981,50363,36910,12922,15892,15615,19845,9104
2.310546875,36,225,54,27,311981,50363,36910,12922,15892,15615,19845,9104
2.3125,37,229,54,27,311981,50363,36910,12922,15892,15615,19845,9104
2.314453125,37,229,54,27,311981,50363,36910,12922,15892,15615,19845,9104
2.31640625,37,218,54,27,311981,50363,36910,12922,15892,15615,19845,9104
2.318359375,37,188,54,27,311981,50363,36910,12922,15892,15615,19845,9104
2.3203125,37,153,54,27,311981,50363,36910,12922,15892,15615,19845,9104
2.322265625,37,135,54,27,311981,50363,36910,12922,15892,15615,19845,9104
2.32421875,37,132,54,27,311981,50363,36910,12922,15892,15615,19845,9104
2.326171875,37,129,54,27,311981,50363,36910,12922,15892,15615,19845,9104
2.328125,37,130,54,27,311981,50363,36910,12922,15892,15615,19845,9104
2.330078125,37,125,54,27,311981,50363,36910,12922,15892,15615,19845,9104
2.33203125,37,112,54,27,311981,50363,36910,12922,15892,15615,19845,9104
2.333984375,37,84,54,27,311981,50363,36910,12922,15892,15615,19845,9104
2.3359375,37,58,54,27,311981,50363,36910,12922,15892,15615,19845,9104
2.337890625,37,67,54,27,311981,50363,36910,12922,15892,15615,19845,9104
2.33984375,37,104,54,27,311981,50363,36910,12922,15892,15615,19845,9104
2.341796875,37,124,54,27,311981,50363,36910,12922,15892,15615,19845,9104
2.34375,37,154,54,27,311981,50363,36910,12922,15892,15615,19845,9104
2.345703125,37,230,54,27,311981,50363,36910,12922,15892,15615,19845,9104
2.34765625,37,295,54,27,311981,50363,36910,12922,15892,15615,19845,9104
2.349609375,37,332,54,27,311981,50363,36910,12922,15892,15615,19845,9104
2.3515625,37,348,54,27,311981,50363,36910,12922,15892,15615,19845,9104
2.353515625,37,362,54,27,311981,50363,36910,12922,15892,15615,19845,9104
2.35546875,37,356,54,27,311981,50363,36910,12922,15892,15615,19845,9104
2.357421875,37,305,54,27,311981,50363,36910,12922,15892,15615,19845,9104
2.359375,37,250,54,27,311981,50363,36910,12922,15892,15615,19845,9104
2.361328125,37,221,54,27,311981,50363,36910,12922,15892,15615,19845,9104
2.36328125,37,214,54,27,311981,50363,36910,12922,15892,15615,19845,9104
2.365234375,37,234,54,27,311981,50363,36910,12922,15892,15615,19845,9104
2.3671875,37,262,54,27,311981,50363,36910,12922,15892,15615,19845,9104
2.369140625,37,304,54,27,311981,50363,36910,12922,15892,15615,19845,9104
2.37109375,37,342,54,27,311981,50363,36910,12922,15892,15615,19845,9104
2.373046875,37,374,54,27,311981,50363,36910,12922,15892,15615,19845,9104
2.375,38,391,54,27,311981,50363,36910,12922,15892,15615,19845,9104
2.376953125,38,400,54,27,311981,50363,36910,12922,15892,15615,19845,9104
2.37890625,38,397,54,27,311981,50363,36910,12922,15892,15615,19845,9104
2.380859375,38,372,54,27,311981,50363,36910,12922,15892,15615,19845,9104
2.3828125,38,374,54,27,311981,50363,36910,12922,15892,15615,19845,9104
2.384765625,38,426,54,27,311981,50363,36910,12922,15892,15615,19845,9104
2.38671875,38,468,54,27,311981,50363,36910,12922,15892,15615,19845,9104
2.388671875,38,460,54,27,311981,50363,36910,12922,15892,15615,19845,9104
2.390625,38,460,54,27,311981,50363,36910,12922,15892,15615,19845,9104
2.392578125,38,498,54,27,311981,50363,36910,12922,15892,15615,19845,9104
2.39453125,38,516,54,27,311981,50363,36910,12922,15892,15615,19845,9104
2.396484375,38,521,54,27,311981,50363,36910,12922,15892,15615,19845,9104
2.3984375,38,541,54,27,311981,50363,36910,12922,15892,15615,19845,9104
2.400390625,38,540,54,27,311981,50363,36910,12922,15892,15615,19845,9104
2.40234375,38,528,54,27,311981,50363,36910,12922,15892,15615,19845,9104
2.404296875,38,520,54,27,311981,50363,36910,12922,15892,15615,19845,9104
2.40625,38,521,54,27,311981,50363,36910,12922,15892,15615,19845,9104
2.408203125,38,504,54,27,311981,50363,36910,12922,15892,15615,19845,9104
2.41015625,38,475,54,27,311981,50363,36910,12922,15892,15615,19845,9104
2.412109375,38,476,54,27,311981,50363,36910,12922,15892,15615,19845,9104
2.4140625,38,506,54,27,311981,50363,36910,12922,15892,15615,19845,9104
2.416015625,38,515,54,27,311981,50363,36910,12922,15892,15615,19845,9104
2.41796875,38,482,54,27,311981,50363,36910,12922,15892,15615,19845,9104
2.419921875,38,418,54,27,311981,50363,36910,12922,15892,15615,19845,9104
2.421875,38,360,54,27,311981,50363,36910,12922,15892,15615,19845,9104
2.423828125,38,330,54,27,311981,50363,36910,12922,15892,15615,19845,9104
2.42578125,38,323,54,27,311981,50363,36910,12922,15892,15615,19845,9104
2.427734375,38,326,54,27,311981,50363,36910,12922,15892,15615,19845,9104
2.4296875,38,312,54,27,311981,50363,36910,12922,15892,15615,19845,9104
2.431640625,38,277,54,27,311981,50363,36910,12922,15892,15615,19845,9104
2.43359375,38,230,54,27,311981,50363,36910,12922,15892,15615,19845,9104
2.435546875,38,168,54,27,311981,50363,36910,12922,15892,15615,19845,9104
2.4375,39,119,54,27,311981,50363,36910,12922,15892,15615,19845,9104
2.439453125,39,105,54,27,311981,50363,36910,12922,15892,15615,19845,9104
2.44140625,39,107,54,27,311981,50363,36910,12922,15892,15615,19845,9104
2.443359375,39,85,54,27,311981,50363,36910,12922,15892,15615,19845,9104
2.4453125,39,40,54,27,311981,50363,36910,12922,15892,15615,19845,9104
2.447265625,39,-9,54,27,311981,50363,36910,12922,15892,15615,19845,9104
2.44921875,39,-49,54,27,311981,50363,36910,12922,15892,15615,19845,9104
2.451171875,39,-77,54,27,311981,50363,36910,12922,15892,15615,19845,9104
2.453125,39,-130,54,27,311981,50363,36910,12922,15892,15615,19845,9104
2.455078125,39,-180,54,27,311981,50363,36910,12922,15892,15615,19845,9104
2.45703125,39,-204,54,27,311981,50363,36910,12922,15892,15615,19845,9104
2.458984375,39,-217,54,27,311981,50363,36910,12922,15892,15615,19845,9104
2.4609375,39,-247,54,27,311981,50363,36910,12922,15892,15615,19845,9104
2.462890625,39,-292,54,27,311981,50363,36910,12922,15892,15615,19845,9104
2.46484375,39,-308,54,27,311981,50363,36910,12922,15892,15615,19845,9104
2.466796875,39,-298,54,27,311981,50363,36910,12922,15892,15615,19845,9104
2.46875,39,-313,54,27,311981,50363,36910,12922,15892,15615,19845,9104
2.470703125,39,-344,54,27,311981,50363,36910,12922,15892,15615,19845,9104
2.47265625,39,-356,54,27,311981,50363,36910,12922,15892,15615,19845,9104
2.474609375,39,-349,54,27,311981,50363,36910,12922,15892,15615,19845,9104
2.4765625,39,-356,54,27,311981,50363,36910,12922,15892,15615,19845,9104
2.478515625,39,-378,54,27,311981,50363,36910,12922,15892,15615,19845,9104
2.48046875,39,-405,54,27,311981,50363,36910,12922,15892,15615,19845,9104
2.482421875,39,-412,54,27,311981,50363,36910,12922,15892,15615,19845,9104
2.484375,39,-402,54,27,311981,50363,36910,12922,15892,15615,19845,9104
2.486328125,39,-385,54,27,311981,50363,36910,12922,15892,15615,19845,9104
2.48828125,39,-370,54,27,311981,50363,36910,12922,15892,15615,19845,9104
2.490234375,39,-370,54,27,311981,50363,36910,12922,15892,15615,19845,9104
2.4921875,39,-371,54,27,311981,50363,36910,12922,15892,15615,19845,9104
2.494140625,39,-355,54,27,311981,50363,36910,12922,15892,15615,19845,9104
2.49609375,39,-346,54,27,311981,50363,36910,12922,15892,15615,19845,9104
2.498046875,39,-333,54,27,311981,50363,36910,12922,15892,15615,19845,9104
2.5,40,-305,54,27,311981,50363,36910,12922,15892,15615,19845,9104
2.501953125,40,-278,54,27,311981,50363,36910,12922,15892,15615,19845,9104
2.50390625,40,-269,54,27,311981,50363,36910,12922,15892,15615,19845,9104
2.505859375,40,-270,54,27,311981,50363,36910,12922,15892,15615,19845,9104
2.5078125,40,-275,54,27,311981,50363,36910,12922,15892,15615,19845,9104
2.509765625,40,-275,54,27,311981,50363,36910,12922,15892,15615,19845,9104
2.51171875,40,-269,54,27,311981,50363,36910,12922,15892,15615,19845,9104
2.513671875,40,-264,54,27,311981,50363,36910,12922,15892,15615,19845,9104
2.515625,40,-253,54,27,311981,50363,36910,12922,15892,15615,19845,9104
2.517578125,40,-231,54,27,311981,50363,36910,12922,15892,15615,19845,9104
2.51953125,40,-202,54,27,311981,50363,36910,12922,15892,15615,19845,9104
2.521484375,40,-190,54,27,311981,50363,36910,12922,15892,15615,19845,9104
2.5234375,40,-195,54,27,311981,50363,36910,12922,15892,15615,19845,9104
2.525390625,40,-197,54,27,311981,50363,36910,12922,15892,15615,19845,9104
2.52734375,40,-196,54,27,311981,50363,36910,12922,15892,15615,19845,9104
2.529296875,40,-166,54,27,311981,50363,36910,12922,15892,15615,19845,9104
2.53125,40,-133,54,27,311981,50363,36910,12922,15892,15615,19845,9104
2.533203125,40,-129,54,27,311981,50363,36910,12922,15892,15615,19845,9104
2.53515625,40,-152,54,27,311981,50363,36910,12922,15892,15615,19845,9104
2.537109375,40,-187,54,27,311981,50363,36910,12922,15892,15615,19845,9104
2.5390625,40,-211,54,27,311981,50363,36910,12922,15892,15615,19845,9104
2.541015625,40,-199,54,27,311981,50363,36910,12922,15892,15615,19845,9104
2.54296875,40,-168,54,27,311981,50363,36910,12922,15892,15615,19845,9104
2.544921875,40,-126,54,27,311981,50363,36910,12922,15892,15615,19845,9104
2.546875,40,-90,54,27,311981,50363,36910,12922,15892,15615,19845,9104
2.548828125,40,-76,54,27,311981,50363,36910,12922,15892,15615,19845,9104
2.55078125,40,-90,54,27,311981,50363,36910,12922,15892,15615,19845,9104
2.552734375,40,-102,54,27,311981,50363,36910,12922,15892,15615,19845,9104
2.5546875,40,-101,54,27,311981,50363,36910,12922,15892,15615,19845,9104
2.556640625,40,-92,54,27,311981,50363,36910,12922,15892,15615,19845,9104
2.55859375,40,-86,54,27,311981,50363,36910,12922,15892,15615,19845,9104
2.560546875,40,-103,54,27,311981,50363,36910,12922,15892,15615,19845,9104
2.5625,41,-123,54,27,311981,50363,36910,12922,15892,15615,19845,9104
2.564453125,41,-122,54,27,311981,50363,36910,12922,15892,15615,19845,9104
2.56640625,41,-109,54,27,311981,50363,36910,12922,15892,15615,19845,9104
2.568359375,41,-82,54,27,311981,50363,36910,12922,15892,15615,19845,9104
2.5703125,41,-60,54,27,311981,50363,36910,12922,15892,15615,19845,9104
2.572265625,41,-57,54,27,311981,50363,36910,12922,15892,15615,19845,9104
2.57421875,41,-57,54,27,311981,50363,36910,12922,15892,15615,19845,9104
2.576171875,41,-42,54,27,311981,50363,36910,12922,15892,15615,19845,9104
2.578125,41,-13,54,27,311981,50363,36910,12922,15892,15615,19845,9104
2.580078125,41,4,54,27,311981,50363,36910,12922,15892,15615,19845,9104
2.58203125,41,26,54,27,311981,50363,36910,12922,15892,15615,19845,9104
2.583984375,41,54,54,27,311981,50363,36910,12922,15892,15615,19845,9104
2.5859375,41,67,54,27,311981,50363,36910,12922,15892,15615,19845,9104
2.587890625,41,76,54,27,311981,50363,36910,12922,15892,15615,19845,9104
2.58984375,41,92,54,27,311981,50363,36910,12922,15892,15615,19845,9104
2.591796875,41,89,54,27,311981,50363,36910,12922,15892,15615,19845,9104
2.59375,41,61,54,27,311981,50363,36910,12922,15892,15615,19845,9104
2.595703125,41,32,54,27,311981,50363,36910,12922,15892,15615,19845,9104
2.59765625,41,17,54,27,311981,50363,36910,12922,15892,15615,19845,9104
2.599609375,41,32,54,27,311981,50363,36910,12922,15892,15615,19845,9104
2.6015625,41,60,54,27,311981,50363,36910,12922,15892,15615,19845,9104
2.603515625,41,90,54,27,311981,50363,36910,12922,15892,15615,19845,9104
2.60546875,41,102,54,27,311981,50363,36910,12922,15892,15615,19845,9104
2.607421875,41,90,54,27,311981,50363,36910,12922,15892,15615,19845,9104
2.609375,41,70,54,27,311981,50363,36910,12922,15892,15615,19845,9104
2.611328125,41,65,54,27,311981,50363,36910,12922,15892,15615,19845,9104
2.61328125,41,67,54,27,311981,50363,36910,12922,15892,15615,19845,9104
2.615234375,41,72,54,27,311981,50363,36910,12922,15892,15615,19845,9104
2.6171875,41,68,54,27,311981,50363,36910,12922,15892,15615,19845,9104
2.619140625,41,54,54,27,311981,50363,36910,12922,15892,15615,19845,9104
2.62109375,41,50,54,27,311981,50363,36910,12922,15892,15615,19845,9104
2.623046875,41,72,54,27,311981,50363,36910,12922,15892,15615,19845,9104
2.625,42,97,54,27,311981,50363,36910,12922,15892,15615,19845,9104
2.626953125,42,105,54,27,311981,50363,36910,12922,15892,15615,19845,9104
2.62890625,42,103,54,27,311981,50363,36910,12922,15892,15615,19845,9104
2.630859375,42,113,54,27,311981,50363,36910,12922,15892,15615,19845,9104
2.6328125,42,134,54,27,311981,50363,36910,12922,15892,15615,19845,9104
2.634765625,42,161,54,27,311981,50363,36910,12922,15892,15615,19845,9104
2.63671875,42,179,54,27,311981,50363,36910,12922,15892,15615,19845,9104
2.638671875,42,177,54,27,311981,50363,36910,12922,15892,15615,19845,9104
2.640625,42,144,54,27,311981,50363,36910,12922,15892,15615,19845,9104
2.642578125,42,116,54,27,311981,50363,36910,12922,15892,15615,19845,9104
2.64453125,42,100,54,27,311981,50363,36910,12922,15892,15615,19845,9104
2.646484375,42,74,54,27,311981,50363,36910,12922,15892,15615,19845,9104
2.6484375,42,27,54,27,311981,50363,36910,12922,15892,15615,19845,9104
2.650390625,42,-39,54,27,311981,50363,36910,12922,15892,15615,19845,9104
2.65234375,42,-92,54,27,311981,50363,36910,12922,15892,15615,19845,9104
2.654296875,42,-107,54,27,311981,50363,36910,12922,15892,15615,19845,9104
2.65625,42,-61,54,27,311981,50363,36910,12922,15892,15615,19845,9104
2.658203125,42,19,54,27,311981,50363,36910,12922,15892,15615,19845,9104
2.66015625,42,88,54,27,311981,50363,36910,12922,15892,15615,19845,9104
2.662109375,42,99,54,27,311981,50363,36910,12922,15892,15615,19845,9104
2.6640625,42,53,54,27,311981,50363,36910,12922,15892,15615,19845,9104
2.666015625,42,24,54,27,311981,50363,36910,12922,15892,15615,19845,9104
2.66796875,42,35,54,27,311981,50363,36910,12922,15892,15615,19845,9104
2.669921875,42,40,54,27,311981,50363,36910,12922,15892,15615,19845,9104
2.671875,42,25,54,27,311981,50363,36910,12922,15892,15615,19845,9104
2.673828125,42,-3,54,27,311981,50363,36910,12922,15892,15615,19845,9104
2.67578125,42,-18,54,27,311981,50363,36910,12922,15892,15615,19845,9104
2.677734375,42,-4,54,27,311981,50363,36910,12922,15892,15615,19845,9104
2.6796875,42,10,54,27,311981,50363,36910,12922,15892,15615,19845,9104
2.681640625,42,22,54,27,311981,50363,36910,12922,15892,15615,19845,9104
2.68359375,42,48,54,27,311981,50363,36910,12922,15892,15615,19845,9104
2.685546875,42,70,54,27,311981,50363,36910,12922,15892,15615,19845,9104
2.6875,43,65,54,27,311981,50363,36910,12922,15892,15615,19845,9104
2.689453125,43,28,54,27,311981,50363,36910,12922,15892,15615,19845,9104
2.69140625,43,-8,54,27,311981,50363,36910,12922,15892,15615,19845,9104
2.693359375,43,-26,54,27,311981,50363,36910,12922,15892,15615,19845,9104
2.6953125,43,-13,54,27,311981,50363,36910,12922,15892,15615,19845,9104
2.697265625,43,4,54,27,311981,50363,36910,12922,15892,15615,19845,9104
2.69921875,43,0,54,27,311981,50363,36910,12922,15892,15615,19845,9104
2.701171875,43,-11,54,27,311981,50363,36910,12922,15892,15615,19845,9104
2.703125,43,-12,54,27,311981,50363,36910,12922,15892,15615,19845,9104
2.705078125,43,-8,54,27,311981,50363,36910,12922,15892,15615,19845,9104
2.70703125,43,6,54,27,311981,50363,36910,12922,15892,15615,19845,9104
2.708984375,43,25,54,27,311981,50363,36910,12922,15892,15615,19845,9104
2.7109375,43,36,54,27,311981,50363,36910,12922,15892,15615,19845,9104
2.712890625,43,48,54,27,311981,50363,36910,12922,15892,15615,19845,9104
2.71484375,43,61,54,27,311981,50363,36910,12922,15892,15615,19845,9104
2.716796875,43,58,54,27,311981,50363,36910,12922,15892,15615,19845,9104
2.71875,43,38,54,27,311981,50363,36910,12922,15892,15615,19845,9104
2.720703125,43,22,54,27,311981,50363,36910,12922,15892,15615,19845,9104
2.72265625,43,9,54,27,311981,50363,36910,12922,15892,15615,19845,9104
2.724609375,43,9,54,27,311981,50363,36910,12922,15892,15615,19845,9104
2.7265625,43,-1,54,27,311981,50363,36910,12922,15892,15615,19845,9104
2.728515625,43,-19,54,27,311981,50363,36910,12922,15892,15615,19845,9104
2.73046875,43,-28,54,27,311981,50363,36910,12922,15892,15615,19845,9104
2.732421875,43,-17,54,27,311981,50363,36910,12922,15892,15615,19845,9104
2.734375,43,7,54,27,311981,50363,36910,12922,15892,15615,19845,9104
2.736328125,43,21,54,27,311981,50363,36910,12922,15892,15615,19845,9104
2.73828125,43,10,54,27,311981,50363,36910,12922,15892,15615,19845,9104
2.740234375,43,12,54,27,311981,50363,36910,12922,15892,15615,19845,9104
2.7421875,43,18,54,27,311981,50363,36910,12922,15892,15615,19845,9104
2.744140625,43,25,54,27,311981,50363,36910,12922,15892,15615,19845,9104
2.74609375,43,58,54,27,311981,50363,36910,12922,15892,15615,19845,9104
2.748046875,43,90,54,27,311981,50363,36910,12922,15892,15615,19845,9104
2.75,44,84,54,27,311981,50363,36910,12922,15892,15615,19845,9104
2.751953125,44,54,54,27,311981,50363,36910,12922,15892,15615,19845,9104
2.75390625,44,34,54,27,311981,50363,36910,12922,15892,15615,19845,9104
2.755859375,44,33,54,27,311981,50363,36910,12922,15892,15615,19845,9104
2.7578125,44,42,54,27,311981,50363,36910,12922,15892,15615,19845,9104
2.759765625,44,50,54,27,311981,50363,36910,12922,15892,15615,19845,9104
2.76171875,44,45,54,27,311981,50363,36910,12922,15892,15615,19845,9104
2.763671875,44,42,54,27,311981,50363,36910,12922,15892,15615,19845,9104
2.765625,44,40,54,27,311981,50363,36910,12922,15892,15615,19845,9104
2.767578125,44,25,54,27,311981,50363,36910,12922,15892,15615,19845,9104
2.76953125,44,12,54,27,311981,50363,36910,12922,15892,15615,19845,9104
2.771484375,44,20,54,27,311981,50363,36910,12922,15892,15615,19845,9104
2.7734375,44,34,54,27,311981,50363,36910,12922,15892,15615,19845,9104
2.775390625,44,48,54,27,311981,50363,36910,12922,15892,15615,19845,9104
2.77734375,44,39,54,27,311981,50363,36910,12922,15892,15615,19845,9104
2.779296875,44,21,54,27,311981,50363,36910,12922,15892,15615,19845,9104
2.78125,44,21,54,27,311981,50363,36910,12922,15892,15615,19845,9104
2.783203125,44,28,54,27,311981,50363,36910,12922,15892,15615,19845,9104
2.78515625,44,43,54,27,311981,50363,36910,12922,15892,15615,19845,9104
2.787109375,44,52,54,27,311981,50363,36910,12922,15892,15615,19845,9104
2.7890625,44,60,54,27,311981,50363,36910,12922,15892,15615,19845,9104
2.791015625,44,59,54,27,311981,50363,36910,12922,15892,15615,19845,9104
2.79296875,44,50,54,27,311981,50363,36910,12922,15892,15615,19845,9104
2.794921875,44,33,54,27,311981,50363,36910,12922,15892,15615,19845,9104
2.796875,44,26,54,27,311981,50363,36910,12922,15892,15615,19845,9104
2.798828125,44,44,54,27,311981,50363,36910,12922,15892,15615,19845,9104
2.80078125,44,72,54,27,311981,50363,36910,12922,15892,15615,19845,9104
2.802734375,44,85,54,27,311981,50363,36910,12922,15892,15615,19845,9104
2.8046875,44,71,54,27,311981,50363,36910,12922,15892,15615,19845,9104
2.806640625,44,59,54,27,311981,50363,36910,12922,15892,15615,19845,9104
2.80859375,44,59,54,27,311981,50363,36910,12922,15892,15615,19845,9104
2.810546875,44,54,54,27,311981,50363,36910,12922,15892,15615,19845,9104
2.8125,45,44,54,27,311981,50363,36910,12922,15892,15615,19845,9104
2.814453125,45,59,54,27,311981,50363,36910,12922,15892,15615,19845,9104
2.81640625,45,93,54,27,311981,50363,36910,12922,15892,15615,19845,9104
2.818359375,45,120,54,27,311981,50363,36910,12922,15892,15615,19845,9104
2.8203125,45,124,54,27,311981,50363,36910,12922,15892,15615,19845,9104
2.822265625,45,106,54,27,311981,50363,36910,12922,15892,15615,19845,9104
2.82421875,45,86,54,27,311981,50363,36910,12922,15892,15615,19845,9104
2.826171875,45,74,54,27,311981,50363,36910,12922,15892,15615,19845,9104
2.828125,45,82,54,27,311981,50363,36910,12922,15892,15615,19845,9104
2.830078125,45,82,54,27,311981,50363,36910,12922,15892,15615,19845,9104
2.83203125,45,82,54,27,311981,50363,36910,12922,15892,15615,19845,9104
2.833984375,45,98,54,27,311981,50363,36910,12922,15892,15615,19845,9104
2.8359375,45,112,54,27,311981,50363,36910,12922,15892,15615,19845,9104
2.837890625,45,93,54,27,311981,50363,36910,12922,15892,15615,19845,9104
2.83984375,45,67,54,27,311981,50363,36910,12922,15892,15615,19845,9104
2.841796875,45,56,54,27,311981,50363,36910,12922,15892,15615,19845,9104
2.84375,45,84,54,27,311981,50363,36910,12922,15892,15615,19845,9104
2.845703125,45,132,54,27,311981,50363,36910,12922,15892,15615,19845,9104
2.84765625,45,150,54,27,311981,50363,36910,12922,15892,15615,19845,9104
2.849609375,45,142,54,27,311981,50363,36910,12922,15892,15615,19845,9104
2.8515625,45,139,54,27,311981,50363,36910,12922,15892,15615,19845,9104
2.853515625,45,149,54,27,311981,50363,36910,12922,15892,15615,19845,9104
2.85546875,45,152,54,27,311981,50363,36910,12922,15892,15615,19845,9104
2.857421875,45,132,54,27,311981,50363,36910,12922,15892,15615,19845,9104
2.859375,45,97,54,27,311981,50363,36910,12922,15892,15615,19845,9104
2.861328125,45,56,54,27,311981,50363,36910,12922,15892,15615,19845,9104
2.86328125,45,28,54,27,311981,50363,36910,12922,15892,15615,19845,9104
2.865234375,45,11,54,27,311981,50363,36910,12922,15892,15615,19845,9104
2.8671875,45,16,54,27,311981,50363,36910,12922,15892,15615,19845,9104
2.869140625,45,39,54,27,311981,50363,36910,12922,15892,15615,19845,9104
2.87109375,45,68,54,27,311981,50363,36910,12922,15892,15615,19845,9104
2.873046875,45,75,54,27,311981,50363,36910,12922,15892,15615,19845,9104
2.875,46,58,54,27,311981,50363,36910,12922,15892,15615,19845,9104
2.876953125,46,40,54,27,311981,50363,36910,12922,15892,15615,19845,9104
2.87890625,46,32,54,27,311981,50363,36910,12922,15892,15615,19845,9104
2.880859375,46,16,54,27,311981,50363,36910,12922,15892,15615,19845,9104
2.8828125,46,-12,54,27,311981,50363,36910,12922,15892,15615,19845,9104
2.884765625,46,-37,54,27,311981,50363,36910,12922,15892,15615,19845,9104
2.88671875,46,-8,54,27,311981,50363,36910,12922,15892,15615,19845,9104
2.888671875,46,56,54,27,311981,50363,36910,12922,15892,15615,19845,9104
2.890625,46,86,54,27,311981,50363,36910,12922,15892,15615,19845,9104
2.892578125,46,80,54,27,311981,50363,36910,12922,15892,15615,19845,9104
2.89453125,46,65,54,27,311981,50363,36910,12922,15892,15615,19845,9104
2.896484375,46,28,54,27,311981,50363,36910,12922,15892,15615,19845,9104
2.8984375,46,-22,54,27,311981,50363,36910,12922,15892,15615,19845,9104
2.900390625,46,-76,54,27,311981,50363,36910,12922,15892,15615,19845,9104
2.90234375,46,-98,54,27,311981,50363,36910,12922,15892,15615,19845,9104
2.904296875,46,-75,54,27,311981,50363,36910,12922,15892,15615,19845,9104
2.90625,46,-51,54,27,311981,50363,36910,12922,15892,15615,19845,9104
2.908203125,46,-22,54,27,311981,50363,36910,12922,15892,15615,19845,9104
2.91015625,46,18,54,27,311981,50363,36910,12922,15892,15615,19845,9104
2.912109375,46,45,54,27,311981,50363,36910,12922,15892,15615,19845,9104
2.9140625,46,55,54,27,311981,50363,36910,12922,15892,15615,19845,9104
2.916015625,46,64,54,27,311981,50363,36910,12922,15892,15615,19845,9104
2.91796875,46,76,54,27,311981,50363,36910,12922,15892,15615,19845,9104
2.919921875,46,90,54,27,311981,50363,36910,12922,15892,15615,19845,9104
2.921875,46,81,54,27,311981,50363,36910,12922,15892,15615,19845,9104
2.923828125,46,64,54,27,311981,50363,36910,12922,15892,15615,19845,9104
2.92578125,46,56,54,27,311981,50363,36910,12922,15892,15615,19845,9104
2.927734375,46,53,54,27,311981,50363,36910,12922,15892,15615,19845,9104
2.9296875,46,54,54,27,311981,50363,36910,12922,15892,15615,19845,9104
2.931640625,46,69,54,27,311981,50363,36910,12922,15892,15615,19845,9104
2.93359375,46,88,54,27,311981,50363,36910,12922,15892,15615,19845,9104
2.935546875,46,83,54,27,311981,50363,36910,12922,15892,15615,19845,9104
2.9375,47,60,54,27,311981,50363,36910,12922,15892,15615,19845,9104
2.939453125,47,48,54,27,311981,50363,36910,12922,15892,15615,19845,9104
2.94140625,47,38,54,27,311981,50363,36910,12922,15892,15615,19845,9104
2.943359375,47,36,54,27,311981,50363,36910,12922,15892,15615,19845,9104
2.9453125,47,40,54,27,311981,50363,36910,12922,15892,15615,19845,9104
2.947265625,47,68,54,27,311981,50363,36910,12922,15892,15615,19845,9104
2.94921875,47,69,54,27,311981,50363,36910,12922,15892,15615,19845,9104
2.951171875,47,54,54,27,311981,50363,36910,12922,15892,15615,19845,9104
2.953125,47,52,54,27,311981,50363,36910,12922,15892,15615,19845,9104
2.955078125,47,58,54,27,311981,50363,36910,12922,15892,15615,19845,9104
2.95703125,47,58,54,27,311981,50363,36910,12922,15892,15615,19845,9104
2.958984375,47,42,54,27,311981,50363,36910,12922,15892,15615,19845,9104
2.9609375,47,19,54,27,311981,50363,36910,12922,15892,15615,19845,9104
2.962890625,47,11,54,27,311981,50363,36910,12922,15892,15615,19845,9104
2.96484375,47,32,54,27,311981,50363,36910,12922,15892,15615,19845,9104
2.966796875,47,52,54,27,311981,50363,36910,12922,15892,15615,19845,9104
2.96875,47,41,54,27,311981,50363,36910,12922,15892,15615,19845,9104
2.970703125,47,38,54,27,311981,50363,36910,12922,15892,15615,19845,9104
2.97265625,47,42,54,27,311981,50363,36910,12922,15892,15615,19845,9104
2.974609375,47,48,54,27,311981,50363,36910,12922,15892,15615,19845,9104
2.9765625,47,52,54,27,311981,50363,36910,12922,15892,15615,19845,9104
2.978515625,47,48,54,27,311981,50363,36910,12922,15892,15615,19845,9104
2.98046875,47,34,54,27,311981,50363,36910,12922,15892,15615,19845,9104
2.982421875,47,22,54,27,311981,50363,36910,12922,15892,15615,19845,9104
2.984375,47,24,54,27,311981,50363,36910,12922,15892,15615,19845,9104
2.986328125,47,27,54,27,311981,50363,36910,12922,15892,15615,19845,9104
2.98828125,47,26,54,27,311981,50363,36910,12922,15892,15615,19845,9104
2.990234375,47,20,54,27,311981,50363,36910,12922,15892,15615,19845,9104
2.9921875,47,20,54,27,311981,50363,36910,12922,15892,15615,19845,9104
2.994140625,47,10,54,27,311981,50363,36910,12922,15892,15615,19845,9104
2.99609375,47,-2,54,27,311981,50363,36910,12922,15892,15615,19845,9104
2.998046875,47,-17,54,27,311981,50363,36910,12922,15892,15615,19845,9104
3,48,-26,54,27,311981,50363,36910,12922,15892,15615,19845,9104
3.001953125,48,-38,54,27,311981,50363,36910,12922,15892,15615,19845,9104
3.00390625,48,-43,54,27,311981,50363,36910,12922,15892,15615,19845,9104
3.005859375,48,-37,54,27,311981,50363,36910,12922,15892,15615,19845,9104
3.0078125,48,-22,54,27,311981,50363,36910,12922,15892,15615,19845,9104
3.009765625,48,3,54,27,311981,50363,36910,12922,15892,15615,19845,9104
3.01171875,48,32,54,27,311981,50363,36910,12922,15892,15615,19845,9104
3.013671875,48,58,54,27,311981,50363,36910,12922,15892,15615,19845,9104
3.015625,48,75,54,27,311981,50363,36910,12922,15892,15615,19845,9104
3.017578125,48,81,54,27,311981,50363,36910,12922,15892,15615,19845,9104
3.01953125,48,75,54,27,311981,50363,36910,12922,15892,15615,19845,9104
3.021484375,48,67,54,27,311981,50363,36910,12922,15892,15615,19845,9104
3.0234375,48,73,54,27,311981,50363,36910,12922,15892,15615,19845,9104
3.025390625,48,92,54,27,311981,50363,36910,12922,15892,15615,19845,9104
3.02734375,48,103,54,27,311981,50363,36910,12922,15892,15615,19845,9104
3.029296875,48,97,54,27,311981,50363,36910,12922,15892,15615,19845,9104
3.03125,48,67,54,27,311981,50363,36910,12922,15892,15615,19845,9104
3.033203125,48,40,54,27,311981,50363,36910,12922,15892,15615,19845,9104
3.03515625,48,27,54,27,311981,50363,36910,12922,15892,15615,19845,9104
3.037109375,48,37,54,27,311981,50363,36910,12922,15892,15615,19845,9104
3.0390625,48,32,54,27,311981,50363,36910,12922,15892,15615,19845,9104
3.041015625,48,6,54,27,311981,50363,36910,12922,15892,15615,19845,9104
3.04296875,48,0,54,27,311981,50363,36910,12922,15892,15615,19845,9104
3.044921875,48,6,54,27,311981,50363,36910,12922,15892,15615,19845,9104
3.046875,48,4,54,27,311981,50363,36910,12922,15892,15615,19845,9104
3.048828125,48,-12,54,27,311981,50363,36910,12922,15892,15615,19845,9104
3.05078125,48,-24,54,27,311981,50363,36910,12922,15892,15615,19845,9104
3.052734375,48,-8,54,27,311981,50363,36910,12922,15892,15615,19845,9104
3.0546875,48,18,54,27,311981,50363,36910,12922,15892,15615,19845,9104
3.056640625,48,18,54,27,311981,50363,36910,12922,15892,15615,19845,9104
3.05859375,48,6,54,27,311981,50363,36910,12922,15892,15615,19845,9104
3.060546875,48,2,54,27,311981,50363,36910,12922,15892,15615,19845,9104
3.0625,49,18,54,27,311981,50363,36910,12922,15892,15615,19845,9104
3.064453125,49,23,54,27,311981,50363,36910,12922,15892,15615,19845,9104
3.06640625,49,6,54,27,311981,50363,36910,12922,15892,15615,19845,9104
3.068359375,49,-9,54,27,311981,50363,36910,12922,15892,15615,19845,9104
3.0703125,49,-13,54,27,311981,50363,36910,12922,15892,15615,19845,9104
3.072265625,49,-33,54,27,311981,50363,36910,12922,15892,15615,19845,9104
3.07421875,49,-55,54,27,311981,50363,36910,12922,15892,15615,19845,9104
3.076171875,49,-74,54,27,311981,50363,36910,12922,15892,15615,19845,9104
3.078125,49,-82,54,27,311981,50363,36910,12922,15892,15615,19845,9104
3.080078125,49,-66,54,27,311981,50363,36910,12922,15892,15615,19845,9104
3.08203125,49,-52,54,27,311981,50363,36910,12922,15892,15615,19845,9104
3.083984375,49,-68,54,27,311981,50363,36910,12922,15892,15615,19845,9104
3.0859375,49,-76,54,27,311981,50363,36910,12922,15892,15615,19845,9104
3.087890625,49,-52,54,27,311981,50363,36910,12922,15892,15615,19845,9104
3.08984375,49,-14,54,27,311981,50363,36910,12922,15892,15615,19845,9104
3.091796875,49,-4,54,27,311981,50363,36910,12922,15892,15615,19845,9104
3.09375,49,-8,54,27,311981,50363,36910,12922,15892,15615,19845,9104
3.095703125,49,-10,54,27,311981,50363,36910,12922,15892,15615,19845,9104
3.09765625,49,-10,54,27,311981,50363,36910,12922,15892,15615,19845,9104
3.099609375,49,0,60,21,166308,47054,11131,9031,7831,12375,4498,1886
3.1015625,49,12,60,21,166308,47054,11131,9031,7831,12375,4498,1886
3.103515625,49,22,60,21,166308,47054,11131,9031,7831,12375,4498,1886
3.10546875,49,18,60,21,166308,47054,11131,9031,7831,12375,4498,1886
3.107421875,49,2,60,21,166308,47054,11131,9031,7831,12375,4498,1886
3.109375,49,-20,60,21,166308,47054,11131,9031,7831,12375,4498,1886
3.111328125,49,-26,60,21,166308,47054,11131,9031,7831,12375,4498,1886
3.11328125,49,-7,60,21,166308,47054,11131,9031,7831,12375,4498,1886
3.115234375,49,10,60,21,166308,47054,11131,9031,7831,12375,4498,1886
3.1171875,49,18,60,21,166308,47054,11131,9031,7831,12375,4498,1886
3.119140625,49,24,60,21,166308,47054,11131,9031,7831,12375,4498,1886
3.12109375,49,25,60,21,166308,47054,11131,9031,7831,12375,4498,1886
3.123046875,49,1,60,21,166308,47054,11131,9031,7831,12375,4498,1886
3.125,50,-21,60,21,166308,47054,11131,9031,7831,12375,4498,1886
3.126953125,50,-18,60,21,166308,47054,11131,9031,7831,12375,4498,1886
3.12890625,50,-4,60,21,166308,47054,11131,9031,7831,12375,4498,1886
3.130859375,50,10,60,21,166308,47054,11131,9031,7831,12375,4498,1886
3.1328125,50,19,60,21,166308,47054,11131,9031,7831,12375,4498,1886
3.134765625,50,36,60,21,166308,47054,11131,9031,7831,12375,4498,1886
3.13671875,50,54,60,21,166308,47054,11131,9031,7831,12375,4498,1886
3.138671875,50,54,60,21,166308,47054,11131,9031,7831,12375,4498,1886
3.140625,50,42,60,21,166308,47054,11131,9031,7831,12375,4498,1886
3.142578125,50,50,60,21,166308,47054,11131,9031,7831,12375,4498,1886
3.14453125,50,71,60,21,166308,47054,11131,9031,7831,12375,4498,1886
3.146484375,50,86,60,21,166308,47054,11131,9031,7831,12375,4498,1886
3.1484375,50,89,60,21,166308,47054,11131,9031,7831,12375,4498,1886
3.150390625,50,93,60,21,166308,47054,11131,9031,7831,12375,4498,1886
3.15234375,50,106,60,21,166308,47054,11131,9031,7831,12375,4498,1886
3.154296875,50,121,60,21,166308,47054,11131,9031,7831,12375,4498,1886
3.15625,50,123,60,21,166308,47054,11131,9031,7831,12375,4498,1886
3.158203125,50,108,60,21,166308,47054,11131,9031,7831,12375,4498,1886
3.16015625,50,72,60,21,166308,47054,11131,9031,7831,12375,4498,1886
3.162109375,50,42,60,21,166308,47054,11131,9031,7831,12375,4498,1886
3.1640625,50,34,60,21,166308,47054,11131,9031,7831,12375,4498,1886
3.166015625,50,33,60,21,166308,47054,11131,9031,7831,12375,4498,1886
3.16796875,50,23,60,21,166308,47054,11131,9031,7831,12375,4498,1886
3.169921875,50,32,60,21,166308,47054,11131,9031,7831,12375,4498,1886
3.171875,50,42,60,21,166308,47054,11131,9031,7831,12375,4498,1886
3.173828125,50,51,60,21,166308,47054,11131,9031,7831,12375,4498,1886
3.17578125,50,51,60,21,166308,47054,11131,9031,7831,12375,4498,1886
3.177734375,50,50,60,21,166308,47054,11131,9031,7831,12375,4498,1886
3.1796875,50,57,60,21,166308,47054,11131,9031,7831,12375,4498,1886
3.181640625,50,56,60,21,166308,47054,11131,9031,7831,12375,4498,1886
3.18359375,50,51,60,21,166308,47054,11131,9031,7831,12375,4498,1886
3.185546875,50,44,60,21,166308,47054,11131,9031,7831,12375,4498,1886
3.1875,51,24,60,21,166308,47054,11131,9031,7831,12375,4498,1886
3.189453125,51,-14,60,21,166308,47054,11131,9031,7831,12375,4498,1886
3.19140625,51,-35,60,21,166308,47054,11131,9031,7831,12375,4498,1886
3.193359375,51,-10,60,21,166308,47054,11131,9031,7831,12375,4498,1886
3.1953125,51,22,60,21,166308,47054,11131,9031,7831,12375,4498,1886
3.197265625,51,50,60,21,166308,47054,11131,9031,7831,12375,4498,1886
3.19921875,51,70,60,21,166308,47054,11131,9031,7831,12375,4498,1886
3.201171875,51,88,60,21,166308,47054,11131,9031,7831,12375,4498,1886
3.203125,51,93,60,21,166308,47054,11131,9031,7831,12375,4498,1886
3.205078125,51,70,60,21,166308,47054,11131,9031,7831,12375,4498,1886
3.20703125,51,51,60,21,166308,47054,11131,9031,7831,12375,4498,1886
3.208984375,51,57,60,21,166308,47054,11131,9031,7831,12375,4498,1886
3.2109375,51,60,60,21,166308,47054,11131,9031,7831,12375,4498,1886
3.212890625,51,40,60,21,166308,47054,11131,9031,7831,12375,4498,1886
3.21484375,51,17,60,21,166308,47054,11131,9031,7831,12375,4498,1886
3.216796875,51,10,60,21,166308,47054,11131,9031,7831,12375,4498,1886
3.21875,51,17,60,21,166308,47054,11131,9031,7831,12375,4498,1886
3.220703125,51,32,60,21,166308,47054,11131,9031,7831,12375,4498,1886
3.22265625,51,38,60,21,166308,47054,11131,9031,7831,12375,4498,1886
3.224609375,51,34,60,21,166308,47054,11131,9031,7831,12375,4498,1886
3.2265625,51,25,60,21,166308,47054,11131,9031,7831,12375,4498,1886
